,Time128Hz,Epoch,AF3,F7,F3,F5,T7,P7,O1,O2,P8,T8,FC6,F4,F8,AF4,EventId,EventDate,EventDuration
1771,13.8359375,55,4139.4873046875,4139.4873046875,4157.6923828125,4134.7436523438,4151.2822265625,4141.9228515625,4128.9741210938,4161.6665039063,4153.0771484375,4145.1284179688,4137.6923828125,4126.6665039063,4138.0771484375,4192.4360351563,33025,13.8395803992,0.0000000000
1772,13.84375,55,4139.3588867188,4136.2822265625,4150.8974609375,4123.8461914063,4141.5385742188,4145.8974609375,4135.1284179688,4159.2309570313,4156.1538085938,4153.58984375,4144.4873046875,4126.6665039063,4138.7177734375,4187.9487304688,33025,0,0
1773,13.8515625,55,4140.8974609375,4135.1284179688,4149.615234375,4125.8974609375,4136.5385742188,4138.3334960938,4126.2822265625,4154.7436523438,4154.3588867188,4161.5385742188,4162.6923828125,4138.0771484375,4143.9741210938,4194.8715820313,33025,0,0
1774,13.859375,55,4144.3588867188,4142.1796875,4160.384765625,4139.1025390625,4142.4360351563,4136.794921875,4123.0771484375,4155.7690429688,4156.794921875,4167.9487304688,4176.1538085938,4138.9741210938,4156.6665039063,4201.794921875,33025,0,0
1775,13.8671875,55,4143.7177734375,4144.615234375,4167.5639648438,4137.1796875,4141.0258789063,4140.6411132813,4123.205078125,4158.58984375,4156.1538085938,4166.5385742188,4175.7690429688,4138.9741210938,4166.9228515625,4206.6665039063,33025,0,0
1776,13.875,55,4143.205078125,4138.0771484375,4157.6923828125,4124.1025390625,4140.6411132813,4137.0512695313,4116.1538085938,4150.8974609375,4145.1284179688,4153.9741210938,4168.7177734375,4143.4614257813,4158.4614257813,4208.4614257813,33025,0,0
1777,13.8828125,55,4142.5639648438,4134.2309570313,4148.3334960938,4125.8974609375,4151.41015625,4133.8461914063,4113.3334960938,4139.4873046875,4135.6411132813,4139.4873046875,4154.8715820313,4143.0771484375,4140.0,4196.41015625,33025,0,0
1778,13.890625,55,4142.4360351563,4142.9487304688,4151.5385742188,4139.3588867188,4156.41015625,4137.1796875,4121.5385742188,4138.8461914063,4134.615234375,4136.1538085938,4141.0258789063,4133.205078125,4134.7436523438,4185.8974609375,33025,0,0
1779,13.8984375,55,4143.7177734375,4155.2563476563,4154.2309570313,4141.1538085938,4156.5385742188,4143.0771484375,4129.2309570313,4148.4614257813,4138.8461914063,4141.794921875,4136.5385742188,4123.9741210938,4139.3588867188,4187.0512695313,33025,0,0
1780,13.90625,55,4142.5639648438,4151.1538085938,4151.1538085938,4137.8203125,4158.3334960938,4146.1538085938,4128.4614257813,4152.4360351563,4140.7690429688,4137.3076171875,4135.5126953125,4121.5385742188,4131.5385742188,4184.7436523438,33025,0,0
1781,13.9140625,55,4137.9487304688,4138.3334960938,4149.7436523438,4139.4873046875,4150.1284179688,4143.7177734375,4124.2309570313,4143.8461914063,4130.8974609375,4124.615234375,4132.0512695313,4115.6411132813,4117.8203125,4181.794921875,33025,0,0
1782,13.921875,55,4136.5385742188,4139.7436523438,4151.9228515625,4141.5385742188,4146.0258789063,4137.4360351563,4120.1284179688,4132.1796875,4120.0,4126.794921875,4135.6411132813,4105.7690429688,4123.9741210938,4183.0771484375,33025,0,0
1783,13.9296875,55,4140.7690429688,4141.794921875,4154.4873046875,4141.2822265625,4156.1538085938,4138.4614257813,4116.5385742188,4127.3076171875,4121.794921875,4139.2309570313,4149.4873046875,4115.5126953125,4140.8974609375,4187.4360351563,33025,0,0
1784,13.9375,55,4138.8461914063,4128.9741210938,4153.205078125,4135.6411132813,4150.2563476563,4138.7177734375,4111.9228515625,4126.6665039063,4123.4614257813,4137.4360351563,4153.0771484375,4136.9228515625,4141.2822265625,4192.1796875,33025,0,0
1785,13.9453125,55,4137.6923828125,4126.5385742188,4153.205078125,4128.9741210938,4136.1538085938,4127.5639648438,4113.8461914063,4135.5126953125,4122.8203125,4133.8461914063,4152.0512695313,4142.6923828125,4138.205078125,4199.1025390625,33025,0,0
1786,13.953125,55,4142.8203125,4137.1796875,4154.7436523438,4124.8715820313,4138.58984375,4123.4614257813,4125.8974609375,4153.8461914063,4137.0512695313,4147.3076171875,4164.4873046875,4142.1796875,4151.9228515625,4208.205078125,33025,0,0
1787,13.9609375,55,4136.794921875,4125.0,4143.0771484375,4117.8203125,4135.384765625,4134.8715820313,4136.794921875,4156.1538085938,4144.8715820313,4152.8203125,4163.0771484375,4136.5385742188,4158.7177734375,4203.7177734375,33025,0,0
1788,13.96875,55,4126.0258789063,4101.0258789063,4127.0512695313,4104.4873046875,4125.0,4141.1538085938,4140.0,4140.384765625,4130.7690429688,4140.7690429688,4141.1538085938,4121.9228515625,4143.7177734375,4187.5639648438,33025,0,0
1789,13.9765625,55,4124.4873046875,4106.9228515625,4127.4360351563,4093.0769042969,4136.9228515625,4137.8203125,4131.6665039063,4133.8461914063,4126.41015625,4135.7690429688,4133.0771484375,4115.7690429688,4134.1025390625,4181.6665039063,33025,0,0
1790,13.984375,55,4126.794921875,4126.41015625,4135.1284179688,4088.4614257813,4156.9228515625,4141.6665039063,4123.3334960938,4143.0771484375,4142.0512695313,4140.5126953125,4140.5126953125,4117.8203125,4140.5126953125,4186.2822265625,33025,0,0
1791,13.9921875,55,4130.5126953125,4125.384765625,4138.4614257813,4093.7180175781,4158.8461914063,4146.794921875,4122.6923828125,4148.8461914063,4151.5385742188,4142.9487304688,4140.1284179688,4127.1796875,4141.9228515625,4186.5385742188,33025,0,0
1792,14.0,56,4130.5126953125,4118.8461914063,4138.9741210938,4102.5639648438,4150.1284179688,4140.5126953125,4116.5385742188,4141.41015625,4147.5639648438,4141.5385742188,4138.205078125,4141.1538085938,4138.0771484375,4185.1284179688,33025,0,0
1793,14.0078125,56,4126.6665039063,4126.6665039063,4138.9741210938,4105.0,4143.9741210938,4135.8974609375,4107.1796875,4137.0512695313,4142.3076171875,4143.3334960938,4143.205078125,4142.6923828125,4142.0512695313,4182.4360351563,33025,0,0
1794,14.015625,56,4128.8461914063,4131.1538085938,4137.1796875,4104.3588867188,4140.384765625,4134.2309570313,4106.41015625,4138.7177734375,4135.1284179688,4141.5385742188,4138.205078125,4131.794921875,4138.58984375,4173.7177734375,33025,0,0
1795,14.0234375,56,4132.0512695313,4123.0771484375,4134.615234375,4105.1284179688,4135.2563476563,4124.8715820313,4104.4873046875,4130.5126953125,4121.9228515625,4129.1025390625,4123.205078125,4123.9741210938,4125.0,4167.9487304688,33025,0,0
1796,14.03125,56,4128.58984375,4125.384765625,4136.0258789063,4107.8203125,4135.7690429688,4121.1538085938,4106.1538085938,4123.7177734375,4116.6665039063,4118.4614257813,4116.1538085938,4115.5126953125,4119.8715820313,4165.384765625,33025,0,0
1797,14.0390625,56,4130.384765625,4139.615234375,4137.1796875,4110.384765625,4142.0512695313,4132.4360351563,4118.8461914063,4135.5126953125,4126.6665039063,4126.9228515625,4123.8461914063,4110.0,4124.615234375,4166.0258789063,33025,0,0
1798,14.046875,56,4140.384765625,4140.384765625,4143.0771484375,4108.4614257813,4131.6665039063,4139.7436523438,4126.1538085938,4142.9487304688,4138.58984375,4140.0,4132.4360351563,4118.0771484375,4131.2822265625,4175.8974609375,33025,0,0
1799,14.0546875,56,4140.8974609375,4127.1796875,4153.9741210938,4106.6665039063,4124.8715820313,4138.58984375,4125.7690429688,4139.4873046875,4139.3588867188,4139.2309570313,4136.0258789063,4127.3076171875,4137.8203125,4187.0512695313,33025,0,0
1800,14.0625,56,4134.3588867188,4121.9228515625,4151.5385742188,4104.8715820313,4138.7177734375,4139.4873046875,4122.4360351563,4138.8461914063,4130.7690429688,4137.4360351563,4140.2563476563,4126.2822265625,4141.2822265625,4186.5385742188,33025,0,0
1801,14.0703125,56,4132.3076171875,4123.205078125,4136.9228515625,4099.8715820313,4137.0512695313,4139.3588867188,4113.7177734375,4133.8461914063,4122.5639648438,4140.1284179688,4141.2822265625,4125.384765625,4139.3588867188,4183.0771484375,33025,0,0
1802,14.078125,56,4133.8461914063,4122.9487304688,4136.0258789063,4099.2309570313,4124.8715820313,4135.384765625,4108.9741210938,4131.1538085938,4129.615234375,4143.4614257813,4140.7690429688,4134.3588867188,4137.6923828125,4187.1796875,33025,0,0
1803,14.0859375,56,4134.615234375,4125.7690429688,4142.5639648438,4106.6665039063,4135.2563476563,4133.4614257813,4110.5126953125,4139.2309570313,4143.8461914063,4147.8203125,4142.0512695313,4137.3076171875,4135.5126953125,4184.7436523438,33025,0,0
1804,14.09375,56,4132.6923828125,4126.6665039063,4135.384765625,4108.0771484375,4143.7177734375,4134.8715820313,4107.8203125,4135.6411132813,4138.8461914063,4142.0512695313,4135.5126953125,4123.7177734375,4128.4614257813,4171.2822265625,33025,0,0
1805,14.1015625,56,4129.1025390625,4121.5385742188,4132.0512695313,4103.9741210938,4138.0771484375,4133.205078125,4104.4873046875,4119.615234375,4121.9228515625,4125.0,4122.8203125,4112.3076171875,4118.8461914063,4164.4873046875,33025,0,0
1806,14.109375,56,4129.8715820313,4121.2822265625,4141.794921875,4107.5639648438,4134.7436523438,4128.8461914063,4106.41015625,4116.794921875,4118.3334960938,4119.4873046875,4123.9741210938,4118.4614257813,4118.9741210938,4170.2563476563,33025,0,0
1807,14.1171875,56,4136.0258789063,4125.6411132813,4144.7436523438,4112.3076171875,4132.1796875,4127.0512695313,4114.2309570313,4127.8203125,4127.3076171875,4130.384765625,4137.5639648438,4124.1025390625,4131.5385742188,4175.2563476563,33025,0,0
1808,14.125,56,4138.3334960938,4119.2309570313,4138.0771484375,4108.9741210938,4132.6923828125,4129.8715820313,4121.2822265625,4135.8974609375,4131.0258789063,4134.2309570313,4137.5639648438,4117.1796875,4135.5126953125,4173.205078125,33025,0,0
1809,14.1328125,56,4133.58984375,4113.8461914063,4136.2822265625,4105.7690429688,4127.5639648438,4130.5126953125,4117.6923828125,4138.3334960938,4127.4360351563,4127.5639648438,4127.5639648438,4109.1025390625,4127.1796875,4170.5126953125,33025,0,0
1810,14.140625,56,4132.0512695313,4120.7690429688,4137.3076171875,4107.0512695313,4117.3076171875,4127.3076171875,4112.9487304688,4134.3588867188,4123.7177734375,4124.4873046875,4121.5385742188,4100.6411132813,4120.6411132813,4167.4360351563,33025,0,0
1811,14.1484375,56,4138.4614257813,4121.2822265625,4130.2563476563,4106.41015625,4121.0258789063,4122.1796875,4112.5639648438,4121.5385742188,4116.794921875,4124.8715820313,4114.7436523438,4092.8205566406,4115.7690429688,4160.7690429688,33025,0,0
1812,14.15625,56,4135.5126953125,4111.2822265625,4122.9487304688,4100.8974609375,4127.0512695313,4120.2563476563,4103.8461914063,4107.1796875,4104.4873046875,4120.8974609375,4113.0771484375,4087.6923828125,4110.8974609375,4152.3076171875,33025,0,0
1813,14.1640625,56,4125.5126953125,4106.6665039063,4123.0771484375,4095.2563476563,4124.8715820313,4120.1284179688,4096.794921875,4103.8461914063,4096.794921875,4119.1025390625,4121.9228515625,4088.58984375,4114.4873046875,4149.8715820313,33025,0,0
1814,14.171875,56,4126.6665039063,4107.3076171875,4121.5385742188,4092.1794433594,4118.4614257813,4113.0771484375,4101.9228515625,4109.2309570313,4097.4360351563,4120.384765625,4122.5639648438,4093.58984375,4116.41015625,4149.2309570313,33025,0,0
1815,14.1796875,56,4130.384765625,4104.8715820313,4120.0,4092.5642089844,4109.2309570313,4109.2309570313,4104.1025390625,4110.7690429688,4098.3334960938,4115.0,4110.0,4093.9743652344,4108.58984375,4143.4614257813,33025,0,0
1816,14.1875,56,4128.0771484375,4105.2563476563,4122.1796875,4093.205078125,4111.5385742188,4118.7177734375,4100.5126953125,4106.2822265625,4099.1025390625,4107.3076171875,4101.794921875,4089.1025390625,4105.5126953125,4136.5385742188,33025,0,0
1817,14.1953125,56,4123.3334960938,4106.1538085938,4123.205078125,4090.2563476563,4123.8461914063,4126.1538085938,4101.1538085938,4104.615234375,4102.8203125,4103.58984375,4102.3076171875,4089.8718261719,4105.384765625,4135.5126953125,33025,0,0
1818,14.203125,56,4125.1284179688,4106.2822265625,4129.615234375,4092.8205566406,4123.8461914063,4124.615234375,4107.1796875,4112.9487304688,4107.4360351563,4109.615234375,4109.2309570313,4103.4614257813,4108.7177734375,4143.4614257813,33025,0,0
1819,14.2109375,56,4131.41015625,4110.7690429688,4134.615234375,4103.9741210938,4123.0771484375,4125.0,4111.794921875,4124.3588867188,4116.0258789063,4121.9228515625,4118.7177734375,4111.5385742188,4120.5126953125,4158.0771484375,33025,0,0
1820,14.21875,56,4129.8715820313,4113.0771484375,4128.58984375,4108.0771484375,4120.1284179688,4125.2563476563,4110.8974609375,4127.6923828125,4123.8461914063,4124.4873046875,4121.5385742188,4106.794921875,4126.1538085938,4164.8715820313,33025,0,0
1821,14.2265625,56,4126.794921875,4114.615234375,4131.0258789063,4105.6411132813,4109.7436523438,4119.8715820313,4108.205078125,4128.3334960938,4124.1025390625,4121.41015625,4120.8974609375,4106.1538085938,4122.9487304688,4158.3334960938,33025,0,0
1822,14.234375,56,4127.9487304688,4117.9487304688,4139.3588867188,4107.4360351563,4117.0512695313,4114.8715820313,4104.3588867188,4128.58984375,4117.4360351563,4122.9487304688,4123.58984375,4111.794921875,4122.8203125,4154.615234375,33025,0,0
1823,14.2421875,56,4129.3588867188,4115.2563476563,4130.1284179688,4102.0512695313,4125.5126953125,4116.1538085938,4099.3588867188,4119.7436523438,4111.2822265625,4121.1538085938,4123.58984375,4108.7177734375,4120.1284179688,4155.6411132813,33025,0,0
1824,14.25,57,4124.8715820313,4107.4360351563,4118.205078125,4094.3588867188,4109.2309570313,4115.0,4092.4357910156,4109.8715820313,4108.0771484375,4116.41015625,4118.9741210938,4106.41015625,4116.41015625,4153.9741210938,33025,0,0
1825,14.2578125,57,4121.0258789063,4106.5385742188,4122.4360351563,4100.5126953125,4101.6665039063,4106.794921875,4084.7436523438,4109.8715820313,4109.4873046875,4119.8715820313,4121.5385742188,4120.2563476563,4121.6665039063,4153.9741210938,33025,0,0
1826,14.265625,57,4123.205078125,4110.6411132813,4126.794921875,4108.3334960938,4116.41015625,4103.3334960938,4080.0,4111.0258789063,4112.4360351563,4124.1025390625,4126.2822265625,4127.4360351563,4126.41015625,4156.0258789063,33025,0,0
1827,14.2734375,57,4124.615234375,4109.1025390625,4125.384765625,4106.41015625,4124.3588867188,4106.5385742188,4081.794921875,4107.5639648438,4109.4873046875,4124.1025390625,4122.4360351563,4115.5126953125,4124.7436523438,4155.6411132813,33025,0,0
1828,14.28125,57,4122.4360351563,4108.7177734375,4124.4873046875,4106.0258789063,4115.6411132813,4104.8715820313,4086.41015625,4106.41015625,4107.3076171875,4123.7177734375,4118.9741210938,4106.5385742188,4123.0771484375,4153.3334960938,33025,0,0
1829,14.2890625,57,4124.3588867188,4116.0258789063,4123.8461914063,4108.3334960938,4100.8974609375,4105.1284179688,4091.1538085938,4112.6923828125,4109.8715820313,4123.3334960938,4120.0,4107.8203125,4123.0771484375,4153.9741210938,33025,0,0
1830,14.296875,57,4129.3588867188,4124.7436523438,4124.7436523438,4107.3076171875,4106.41015625,4116.794921875,4098.205078125,4113.7177734375,4109.7436523438,4120.7690429688,4114.3588867188,4107.4360351563,4120.8974609375,4154.4873046875,33025,0,0
1831,14.3046875,57,4127.9487304688,4121.794921875,4126.794921875,4109.3588867188,4128.58984375,4122.4360351563,4099.615234375,4107.5639648438,4108.4614257813,4115.0,4107.8203125,4106.6665039063,4115.7690429688,4152.9487304688,33025,0,0
1832,14.3125,57,4123.58984375,4110.384765625,4122.3076171875,4107.8203125,4125.7690429688,4113.3334960938,4094.8718261719,4107.3076171875,4106.1538085938,4109.8715820313,4104.2309570313,4101.41015625,4109.3588867188,4145.384765625,33025,0,0
1833,14.3203125,57,4119.1025390625,4104.3588867188,4109.3588867188,4095.7692871094,4107.4360351563,4107.0512695313,4093.205078125,4102.6923828125,4094.1025390625,4103.9741210938,4089.3588867188,4083.8461914063,4105.0,4132.4360351563,33025,0,0
1834,14.328125,57,4113.7177734375,4103.58984375,4105.7690429688,4086.1538085938,4108.4614257813,4107.0512695313,4089.6154785156,4089.8718261719,4085.2563476563,4097.4360351563,4078.205078125,4074.3588867188,4103.58984375,4128.205078125,33025,0,0
1835,14.3359375,57,4117.8203125,4105.7690429688,4120.2563476563,4094.6154785156,4113.205078125,4106.1538085938,4085.0,4092.6923828125,4096.1538085938,4101.9228515625,4092.0512695313,4086.9230957031,4107.8203125,4136.5385742188,33025,0,0
1836,14.34375,57,4125.6411132813,4110.5126953125,4119.1025390625,4103.4614257813,4105.6411132813,4104.8715820313,4088.7180175781,4102.8203125,4101.1538085938,4109.8715820313,4102.0512695313,4097.6923828125,4114.3588867188,4141.9228515625,33025,0,0
1837,14.3515625,57,4120.7690429688,4108.4614257813,4105.384765625,4095.7692871094,4106.9228515625,4105.0,4094.8718261719,4101.2822265625,4090.0,4106.5385742188,4094.3588867188,4094.2307128906,4112.5639648438,4137.9487304688,33025,0,0
1838,14.359375,57,4117.8203125,4103.8461914063,4115.6411132813,4092.1794433594,4115.1284179688,4105.5126953125,4091.41015625,4101.794921875,4093.4614257813,4109.1025390625,4099.3588867188,4092.8205566406,4110.5126953125,4141.41015625,33025,0,0
1839,14.3671875,57,4125.7690429688,4111.1538085938,4133.58984375,4104.3588867188,4111.6665039063,4108.58984375,4092.5642089844,4108.58984375,4107.1796875,4121.1538085938,4111.794921875,4101.794921875,4118.205078125,4154.7436523438,33025,0,0
1840,14.375,57,4126.5385742188,4119.615234375,4129.2309570313,4109.2309570313,4107.4360351563,4112.1796875,4105.5126953125,4108.8461914063,4103.9741210938,4117.8203125,4104.2309570313,4112.9487304688,4118.9741210938,4155.2563476563,33025,0,0
1841,14.3828125,57,4121.1538085938,4111.0258789063,4115.6411132813,4097.1796875,4109.8715820313,4112.1796875,4106.2822265625,4102.1796875,4092.3076171875,4106.0258789063,4090.8974609375,4105.8974609375,4105.2563476563,4142.3076171875,33025,0,0
1842,14.390625,57,4119.2309570313,4097.4360351563,4111.9228515625,4087.3076171875,4108.0771484375,4108.7177734375,4093.9743652344,4094.7436523438,4091.0256347656,4104.4873046875,4087.4357910156,4090.5129394531,4095.8974609375,4135.8974609375,33025,0,0
1843,14.3984375,57,4120.0,4100.384765625,4115.384765625,4089.6154785156,4103.9741210938,4107.6923828125,4093.8461914063,4097.6923828125,4093.58984375,4106.2822265625,4086.9230957031,4096.6665039063,4095.2563476563,4140.2563476563,33025,0,0
1844,14.40625,57,4121.5385742188,4108.205078125,4120.384765625,4093.58984375,4105.2563476563,4108.3334960938,4099.615234375,4105.1284179688,4091.794921875,4104.8715820313,4086.794921875,4107.5639648438,4096.9228515625,4142.6923828125,33025,0,0
1845,14.4140625,57,4121.1538085938,4108.58984375,4121.794921875,4097.8203125,4111.6665039063,4108.3334960938,4095.0,4101.1538085938,4093.205078125,4105.0,4093.0769042969,4105.0,4103.0771484375,4143.9741210938,33025,0,0
1846,14.421875,57,4121.794921875,4110.2563476563,4120.6411132813,4104.1025390625,4110.7690429688,4108.58984375,4093.4614257813,4098.58984375,4097.3076171875,4107.3076171875,4103.9741210938,4112.0512695313,4111.2822265625,4146.9228515625,33025,0,0
1847,14.4296875,57,4124.3588867188,4113.3334960938,4124.2309570313,4107.9487304688,4102.5639648438,4109.615234375,4101.0258789063,4105.6411132813,4099.3588867188,4109.3588867188,4111.2822265625,4126.0258789063,4115.384765625,4145.2563476563,33025,0,0
1848,14.4375,57,4119.3588867188,4111.5385742188,4119.7436523438,4101.794921875,4105.8974609375,4108.7177734375,4100.0,4106.41015625,4100.1284179688,4108.8461914063,4105.8974609375,4119.2309570313,4114.1025390625,4140.5126953125,33025,0,0
1849,14.4453125,57,4115.8974609375,4107.9487304688,4110.6411132813,4093.58984375,4107.8203125,4105.1284179688,4094.7436523438,4102.9487304688,4098.7177734375,4106.6665039063,4092.3076171875,4102.9487304688,4110.2563476563,4139.1025390625,33025,0,0
1850,14.453125,57,4118.58984375,4110.0,4110.7690429688,4093.205078125,4100.1284179688,4106.1538085938,4094.7436523438,4102.5639648438,4096.2822265625,4110.0,4082.4357910156,4098.3334960938,4105.5126953125,4135.5126953125,33025,0,0
1851,14.4609375,57,4114.2309570313,4107.1796875,4110.5126953125,4093.3332519531,4103.3334960938,4105.7690429688,4092.5642089844,4094.4870605469,4091.2819824219,4106.41015625,4075.0,4091.0256347656,4098.9741210938,4124.7436523438,33025,0,0
1852,14.46875,57,4109.2309570313,4097.1796875,4103.8461914063,4089.6154785156,4111.2822265625,4101.5385742188,4088.58984375,4082.4357910156,4082.9487304688,4094.1025390625,4072.4357910156,4081.9230957031,4097.8203125,4117.6923828125,33025,0,0
1853,14.4765625,57,4111.1538085938,4094.1025390625,4102.1796875,4088.9743652344,4106.41015625,4102.0512695313,4089.7436523438,4081.41015625,4077.6923828125,4092.4357910156,4077.8205566406,4083.8461914063,4103.8461914063,4121.1538085938,33025,0,0
1854,14.484375,57,4112.5639648438,4099.7436523438,4107.5639648438,4092.9487304688,4102.6923828125,4105.5126953125,4093.4614257813,4087.0512695313,4082.4357910156,4099.7436523438,4077.4357910156,4086.41015625,4099.2309570313,4124.2309570313,33025,0,0
1855,14.4921875,57,4111.1538085938,4106.0258789063,4108.9741210938,4096.2822265625,4107.4360351563,4109.3588867188,4099.2309570313,4091.0256347656,4092.1794433594,4102.8203125,4073.8461914063,4085.8974609375,4093.4614257813,4122.5639648438,33025,0,0
1856,14.5,58,4111.1538085938,4106.6665039063,4105.0,4093.3332519531,4096.5385742188,4105.5126953125,4097.5639648438,4089.3588867188,4092.5642089844,4104.2309570313,4080.8974609375,4089.6154785156,4101.2822265625,4126.1538085938,33025,0,0
1857,14.5078125,58,4112.0512695313,4104.2309570313,4105.2563476563,4093.205078125,4079.2307128906,4095.1281738281,4088.8461914063,4088.58984375,4087.4357910156,4108.8461914063,4090.2563476563,4089.8718261719,4108.7177734375,4132.4360351563,33025,0,0
1858,14.515625,58,4112.5639648438,4106.0258789063,4115.7690429688,4102.3076171875,4088.58984375,4097.1796875,4094.3588867188,4098.7177734375,4096.9228515625,4110.5126953125,4098.8461914063,4093.7180175781,4115.1284179688,4139.7436523438,33025,0,0
1859,14.5234375,58,4118.0771484375,4112.5639648438,4126.794921875,4110.1284179688,4104.4873046875,4106.41015625,4106.5385742188,4107.6923828125,4107.1796875,4110.6411132813,4109.3588867188,4109.1025390625,4121.9228515625,4150.7690429688,33025,0,0
1860,14.53125,58,4118.9741210938,4107.6923828125,4118.0771484375,4104.3588867188,4098.4614257813,4100.2563476563,4100.5126953125,4098.58984375,4095.8974609375,4108.205078125,4103.7177734375,4105.2563476563,4113.7177734375,4145.7690429688,33025,0,0
1861,14.5390625,58,4110.2563476563,4096.5385742188,4103.4614257813,4100.1284179688,4094.6154785156,4093.58984375,4088.0769042969,4085.8974609375,4082.9487304688,4103.8461914063,4086.0256347656,4084.1025390625,4103.205078125,4126.1538085938,33025,0,0
1862,14.546875,58,4106.2822265625,4100.8974609375,4106.5385742188,4105.8974609375,4106.5385742188,4103.3334960938,4090.6411132813,4090.1281738281,4088.205078125,4107.1796875,4082.3076171875,4086.2819824219,4106.794921875,4125.7690429688,33025,0,0
1863,14.5546875,58,4112.4360351563,4109.615234375,4111.41015625,4106.9228515625,4110.384765625,4108.58984375,4101.5385742188,4095.1281738281,4093.0769042969,4105.384765625,4082.6923828125,4095.0,4104.2309570313,4138.4614257813,33025,0,0
1864,14.5625,58,4117.8203125,4108.7177734375,4111.0258789063,4105.384765625,4105.8974609375,4106.41015625,4105.384765625,4093.205078125,4090.6411132813,4098.9741210938,4077.9487304688,4087.1794433594,4098.4614257813,4140.2563476563,33025,0,0
1865,14.5703125,58,4117.3076171875,4108.3334960938,4116.0258789063,4109.1025390625,4102.4360351563,4106.0258789063,4101.0258789063,4096.1538085938,4091.794921875,4102.5639648438,4084.2307128906,4090.6411132813,4106.1538085938,4143.8461914063,33025,0,0
1866,14.578125,58,4118.4614257813,4109.8715820313,4120.8974609375,4110.8974609375,4094.1025390625,4100.0,4094.1025390625,4096.794921875,4091.794921875,4108.9741210938,4090.5129394531,4105.5126953125,4107.6923828125,4153.8461914063,33025,0,0
1867,14.5859375,58,4120.1284179688,4107.4360351563,4120.384765625,4106.5385742188,4093.205078125,4096.1538085938,4093.58984375,4095.6411132813,4089.8718261719,4105.7690429688,4086.1538085938,4104.3588867188,4101.1538085938,4153.8461914063,33025,0,0
1868,14.59375,58,4116.9228515625,4105.6411132813,4120.2563476563,4105.5126953125,4099.2309570313,4098.3334960938,4097.4360351563,4098.3334960938,4091.0256347656,4102.5639648438,4088.205078125,4096.1538085938,4102.4360351563,4151.5385742188,33025,0,0
1869,14.6015625,58,4117.0512695313,4106.2822265625,4120.2563476563,4109.8715820313,4097.1796875,4097.3076171875,4099.3588867188,4097.5639648438,4093.0769042969,4107.5639648438,4093.4614257813,4098.0771484375,4107.4360351563,4153.7177734375,33025,0,0
1870,14.609375,58,4121.0258789063,4105.8974609375,4119.615234375,4109.3588867188,4087.0512695313,4095.1281738281,4101.2822265625,4096.1538085938,4091.5385742188,4109.4873046875,4092.3076171875,4105.8974609375,4105.7690429688,4157.0512695313,33025,0,0
1871,14.6171875,58,4122.8203125,4107.9487304688,4122.5639648438,4109.615234375,4082.8205566406,4100.0,4103.8461914063,4101.794921875,4090.3845214844,4105.384765625,4095.7692871094,4108.7177734375,4108.7177734375,4159.3588867188,33025,0,0
1872,14.625,58,4124.615234375,4110.384765625,4126.0258789063,4116.5385742188,4097.4360351563,4108.58984375,4108.4614257813,4106.1538085938,4096.794921875,4108.3334960938,4108.3334960938,4110.2563476563,4120.8974609375,4160.1284179688,33025,0,0
1873,14.6328125,58,4119.4873046875,4108.0771484375,4124.1025390625,4119.1025390625,4104.3588867188,4107.3076171875,4107.4360351563,4099.615234375,4095.3845214844,4112.3076171875,4109.615234375,4108.205078125,4123.7177734375,4156.6665039063,33025,0,0
1874,14.640625,58,4110.1284179688,4106.6665039063,4114.8715820313,4113.7177734375,4090.0,4097.4360351563,4097.3076171875,4090.2563476563,4082.1794433594,4104.1025390625,4092.8205566406,4095.2563476563,4110.1284179688,4147.0512695313,33025,0,0
1875,14.6484375,58,4112.4360351563,4109.7436523438,4106.5385742188,4111.9228515625,4093.7180175781,4094.2307128906,4089.6154785156,4089.7436523438,4081.9230957031,4100.5126953125,4084.2307128906,4080.5129394531,4096.41015625,4140.8974609375,33025,0,0
1876,14.65625,58,4116.2822265625,4110.1284179688,4106.2822265625,4113.0771484375,4116.5385742188,4101.1538085938,4090.1281738281,4092.9487304688,4093.3332519531,4104.7436523438,4090.5129394531,4071.6667480469,4098.3334960938,4134.4873046875,33025,0,0
1877,14.6640625,58,4109.7436523438,4107.0512695313,4107.1796875,4108.9741210938,4112.4360351563,4101.0258789063,4090.6411132813,4094.3588867188,4092.5642089844,4102.8203125,4090.1281738281,4072.1794433594,4106.9228515625,4126.2822265625,33025,0,0
1878,14.671875,58,4105.7690429688,4106.794921875,4109.4873046875,4111.1538085938,4097.4360351563,4094.6154785156,4088.8461914063,4101.6665039063,4088.7180175781,4104.3588867188,4087.3076171875,4082.9487304688,4108.3334960938,4130.1284179688,33025,0,0
1879,14.6796875,58,4110.2563476563,4107.4360351563,4112.6923828125,4118.4614257813,4106.6665039063,4098.4614257813,4091.1538085938,4108.0771484375,4095.8974609375,4111.2822265625,4094.1025390625,4091.794921875,4107.5639648438,4140.5126953125,33025,0,0
1880,14.6875,58,4112.1796875,4106.2822265625,4112.5639648438,4116.0258789063,4114.1025390625,4107.3076171875,4096.9228515625,4102.6923828125,4097.3076171875,4110.0,4097.9487304688,4091.0256347656,4111.5385742188,4141.2822265625,33025,0,0
1881,14.6953125,58,4111.2822265625,4104.7436523438,4113.58984375,4109.615234375,4106.1538085938,4107.1796875,4099.7436523438,4099.7436523438,4089.4870605469,4104.2309570313,4091.794921875,4089.4870605469,4112.9487304688,4137.8203125,33025,0,0
1882,14.703125,58,4116.0258789063,4105.2563476563,4115.1284179688,4109.1025390625,4101.794921875,4104.2309570313,4106.0258789063,4109.615234375,4095.5129394531,4107.3076171875,4091.9230957031,4087.5642089844,4110.2563476563,4141.1538085938,33025,0,0
1883,14.7109375,58,4116.1538085938,4104.615234375,4109.615234375,4109.7436523438,4108.8461914063,4108.4614257813,4112.8203125,4113.7177734375,4106.6665039063,4110.2563476563,4095.8974609375,4078.58984375,4108.58984375,4140.5126953125,33025,0,0
1884,14.71875,58,4109.7436523438,4101.0258789063,4108.8461914063,4108.9741210938,4109.1025390625,4110.2563476563,4110.0,4107.1796875,4100.0,4104.615234375,4090.6411132813,4073.7180175781,4103.7177734375,4136.2822265625,33025,0,0
1885,14.7265625,58,4110.1284179688,4101.1538085938,4118.9741210938,4113.58984375,4097.3076171875,4103.4614257813,4104.8715820313,4104.7436523438,4089.4870605469,4100.384765625,4081.9230957031,4074.4870605469,4099.615234375,4135.5126953125,33025,0,0
1886,14.734375,58,4114.1025390625,4107.5639648438,4123.0771484375,4120.2563476563,4097.1796875,4099.4873046875,4107.3076171875,4105.384765625,4093.8461914063,4105.2563476563,4081.9230957031,4075.0,4102.3076171875,4135.8974609375,33025,0,0
1887,14.7421875,58,4116.5385742188,4112.3076171875,4123.9741210938,4126.0258789063,4106.0258789063,4104.1025390625,4108.9741210938,4105.5126953125,4099.3588867188,4110.5126953125,4089.4870605469,4084.4870605469,4107.4360351563,4139.2309570313,33025,0,0
1888,14.75,59,4117.6923828125,4110.384765625,4129.615234375,4128.0771484375,4106.6665039063,4107.3076171875,4106.0258789063,4107.4360351563,4099.8715820313,4109.615234375,4093.4614257813,4093.0769042969,4109.615234375,4143.3334960938,33025,0,0
1889,14.7578125,59,4116.794921875,4107.5639648438,4124.4873046875,4124.615234375,4105.6411132813,4103.58984375,4106.0258789063,4107.5639648438,4101.1538085938,4110.8974609375,4092.3076171875,4084.6154785156,4107.6923828125,4144.1025390625,33025,0,0
1890,14.765625,59,4109.8715820313,4106.1538085938,4111.5385742188,4118.205078125,4109.2309570313,4099.615234375,4103.58984375,4102.3076171875,4097.6923828125,4113.7177734375,4089.1025390625,4075.7692871094,4106.6665039063,4136.41015625,33025,0,0
1891,14.7734375,59,4104.2309570313,4102.1796875,4109.2309570313,4112.3076171875,4105.2563476563,4095.8974609375,4093.205078125,4091.9230957031,4088.9743652344,4106.9228515625,4083.7180175781,4074.3588867188,4106.0258789063,4126.6665039063,33025,0,0
1892,14.78125,59,4105.7690429688,4092.8205566406,4109.615234375,4107.3076171875,4102.0512695313,4091.41015625,4087.0512695313,4081.1538085938,4079.2307128906,4096.0258789063,4076.0256347656,4067.4357910156,4099.3588867188,4119.1025390625,33025,0,0
1893,14.7890625,59,4105.5126953125,4086.1538085938,4103.8461914063,4107.1796875,4106.6665039063,4091.6667480469,4088.8461914063,4072.8205566406,4074.4870605469,4093.7180175781,4072.5642089844,4063.3332519531,4095.2563476563,4116.41015625,33025,0,0
1894,14.796875,59,4106.794921875,4097.3076171875,4110.8974609375,4118.0771484375,4102.3076171875,4093.7180175781,4094.4870605469,4076.1538085938,4079.7436523438,4097.4360351563,4081.1538085938,4076.41015625,4101.9228515625,4126.9228515625,33025,0,0
1895,14.8046875,59,4114.4873046875,4110.5126953125,4122.9487304688,4125.8974609375,4100.1284179688,4091.794921875,4096.6665039063,4088.4614257813,4083.0769042969,4094.3588867188,4093.205078125,4090.7692871094,4108.0771484375,4140.384765625,33025,0,0
1896,14.8125,59,4114.3588867188,4104.3588867188,4121.1538085938,4117.0512695313,4098.58984375,4088.58984375,4091.9230957031,4089.6154785156,4076.1538085938,4089.1025390625,4093.58984375,4092.0512695313,4106.794921875,4139.8715820313,33025,0,0
1897,14.8203125,59,4108.205078125,4093.8461914063,4119.2309570313,4110.384765625,4088.58984375,4091.2819824219,4090.8974609375,4081.5385742188,4072.8205566406,4090.0,4088.58984375,4089.8718261719,4103.0771484375,4136.9228515625,33025,0,0
1898,14.828125,59,4112.5639648438,4101.9228515625,4123.58984375,4117.6923828125,4094.2307128906,4095.3845214844,4101.794921875,4083.8461914063,4082.9487304688,4097.5639648438,4095.7692871094,4092.9487304688,4104.3588867188,4142.4360351563,33025,0,0
1899,14.8359375,59,4118.0771484375,4108.7177734375,4125.2563476563,4122.4360351563,4105.8974609375,4094.4870605469,4108.7177734375,4098.205078125,4091.2819824219,4105.6411132813,4107.3076171875,4095.3845214844,4108.3334960938,4141.6665039063,33025,0,0
1900,14.84375,59,4113.8461914063,4098.9741210938,4125.1284179688,4120.5126953125,4101.5385742188,4095.8974609375,4105.6411132813,4106.6665039063,4090.7692871094,4108.58984375,4107.0512695313,4095.1281738281,4109.615234375,4136.1538085938,33025,0,0
1901,14.8515625,59,4112.9487304688,4098.7177734375,4123.58984375,4117.6923828125,4100.384765625,4101.9228515625,4106.41015625,4107.4360351563,4097.6923828125,4113.9741210938,4105.8974609375,4101.6665039063,4114.4873046875,4145.0,33025,0,0
1902,14.859375,59,4117.1796875,4107.3076171875,4122.5639648438,4114.3588867188,4110.8974609375,4102.0512695313,4110.5126953125,4112.5639648438,4111.794921875,4124.4873046875,4111.794921875,4109.8715820313,4122.4360351563,4154.3588867188,33025,0,0
1903,14.8671875,59,4116.794921875,4106.2822265625,4125.8974609375,4116.9228515625,4108.205078125,4099.1025390625,4110.384765625,4117.1796875,4116.9228515625,4124.1025390625,4111.0258789063,4110.5126953125,4119.615234375,4149.615234375,33025,0,0
1904,14.875,59,4113.7177734375,4099.4873046875,4121.0258789063,4118.8461914063,4097.6923828125,4098.7177734375,4107.1796875,4110.0,4108.3334960938,4112.1796875,4097.8203125,4108.9741210938,4106.41015625,4140.384765625,33025,0,0
1905,14.8828125,59,4110.2563476563,4094.1025390625,4108.205078125,4111.9228515625,4099.2309570313,4095.5129394531,4100.0,4096.6665039063,4091.794921875,4101.1538085938,4083.3332519531,4102.1796875,4099.615234375,4132.9487304688,33025,0,0
1906,14.890625,59,4104.2309570313,4089.2307128906,4103.7177734375,4106.5385742188,4099.1025390625,4090.8974609375,4091.5385742188,4088.205078125,4076.2819824219,4090.8974609375,4073.0769042969,4087.1794433594,4093.4614257813,4122.6923828125,33025,0,0
1907,14.8984375,59,4105.6411132813,4089.3588867188,4108.8461914063,4107.1796875,4091.5385742188,4090.7692871094,4089.8718261719,4085.2563476563,4072.1794433594,4086.6667480469,4076.41015625,4086.6667480469,4087.5642089844,4120.5126953125,33025,0,0
1908,14.90625,59,4110.8974609375,4091.2819824219,4116.1538085938,4107.5639648438,4091.6667480469,4090.6411132813,4091.6667480469,4087.9487304688,4078.8461914063,4092.9487304688,4089.6154785156,4106.0258789063,4095.8974609375,4131.794921875,33025,0,0
1909,14.9140625,59,4110.384765625,4090.3845214844,4117.0512695313,4108.4614257813,4106.6665039063,4093.4614257813,4092.3076171875,4092.8205566406,4081.0256347656,4097.4360351563,4093.8461914063,4112.9487304688,4105.6411132813,4137.8203125,33025,0,0
1910,14.921875,59,4108.7177734375,4089.8718261719,4110.2563476563,4108.205078125,4114.3588867188,4098.7177734375,4095.8974609375,4088.8461914063,4078.7180175781,4094.7436523438,4089.4870605469,4104.3588867188,4101.794921875,4136.5385742188,33025,0,0
1911,14.9296875,59,4108.58984375,4088.9743652344,4105.2563476563,4105.1284179688,4102.8203125,4098.7177734375,4101.794921875,4087.0512695313,4083.8461914063,4091.9230957031,4088.58984375,4110.7690429688,4097.1796875,4138.0771484375,33025,0,0
1912,14.9375,59,4112.5639648438,4095.2563476563,4113.0771484375,4107.9487304688,4098.58984375,4098.9741210938,4105.1284179688,4097.9487304688,4093.3332519531,4096.41015625,4092.6923828125,4127.1796875,4104.3588867188,4140.7690429688,33025,0,0
1913,14.9453125,59,4114.8715820313,4104.7436523438,4124.2309570313,4113.205078125,4102.1796875,4102.0512695313,4107.6923828125,4102.9487304688,4094.4870605469,4101.5385742188,4095.1281738281,4128.8461914063,4108.9741210938,4138.7177734375,33025,0,0
1914,14.953125,59,4111.1538085938,4099.2309570313,4121.794921875,4112.5639648438,4102.1796875,4100.0,4105.6411132813,4093.8461914063,4088.8461914063,4097.4360351563,4092.4357910156,4122.1796875,4103.8461914063,4133.8461914063,33025,0,0
1915,14.9609375,59,4110.384765625,4090.5129394531,4110.1284179688,4106.0258789063,4105.2563476563,4097.3076171875,4099.1025390625,4087.9487304688,4089.2307128906,4093.7180175781,4087.4357910156,4119.8715820313,4102.5639648438,4132.8203125,33025,0,0
1916,14.96875,59,4112.0512695313,4099.4873046875,4111.794921875,4105.5126953125,4108.4614257813,4097.0512695313,4099.7436523438,4091.41015625,4093.205078125,4102.8203125,4088.7180175781,4115.384765625,4104.4873046875,4133.0771484375,33025,0,0
1917,14.9765625,59,4110.7690429688,4111.0258789063,4123.58984375,4115.2563476563,4108.0771484375,4095.8974609375,4104.3588867188,4092.0512695313,4094.7436523438,4108.0771484375,4092.3076171875,4110.1284179688,4104.7436523438,4133.205078125,33025,0,0
1918,14.984375,59,4111.794921875,4108.58984375,4122.6923828125,4118.58984375,4109.3588867188,4099.7436523438,4100.6411132813,4091.6667480469,4094.6154785156,4100.6411132813,4092.1794433594,4112.4360351563,4106.0258789063,4136.2822265625,33025,0,0
1919,14.9921875,59,4114.4873046875,4104.1025390625,4116.0258789063,4112.5639648438,4107.8203125,4102.9487304688,4092.0512695313,4094.7436523438,4090.7692871094,4096.2822265625,4092.5642089844,4115.5126953125,4106.41015625,4139.8715820313,33025,0,0
1920,15.0,60,4112.5639648438,4107.4360351563,4121.5385742188,4109.1025390625,4104.1025390625,4099.1025390625,4091.6667480469,4095.3845214844,4088.8461914063,4097.6923828125,4093.205078125,4112.8203125,4106.0258789063,4138.8461914063,33025,0,0
1921,15.0078125,60,4109.4873046875,4107.6923828125,4125.6411132813,4110.8974609375,4108.3334960938,4096.0258789063,4092.8205566406,4097.0512695313,4093.58984375,4097.5639648438,4093.0769042969,4110.7690429688,4109.8715820313,4139.7436523438,33025,0,0
1922,15.015625,60,4109.4873046875,4096.0258789063,4115.6411132813,4109.3588867188,4105.1284179688,4092.6923828125,4086.794921875,4094.4870605469,4088.58984375,4094.4870605469,4085.2563476563,4110.2563476563,4107.3076171875,4136.9228515625,33025,0,0
1923,15.0234375,60,4107.5639648438,4086.6667480469,4105.2563476563,4100.2563476563,4099.615234375,4094.3588867188,4085.2563476563,4087.9487304688,4073.0769042969,4088.58984375,4067.8205566406,4100.2563476563,4091.2819824219,4120.6411132813,33025,0,0
1924,15.03125,60,4104.8715820313,4089.1025390625,4105.384765625,4094.3588867188,4105.1284179688,4102.8203125,4092.0512695313,4086.2819824219,4073.205078125,4083.9743652344,4061.2819824219,4090.7692871094,4082.5642089844,4110.7690429688,33025,0,0
1925,15.0390625,60,4106.1538085938,4092.1794433594,4111.0258789063,4096.6665039063,4105.0,4101.1538085938,4093.8461914063,4090.3845214844,4088.9743652344,4089.4870605469,4072.4357910156,4099.2309570313,4088.3332519531,4119.4873046875,33025,0,0
1926,15.046875,60,4105.8974609375,4090.0,4112.4360351563,4098.58984375,4094.1025390625,4090.0,4088.8461914063,4096.41015625,4097.3076171875,4102.4360351563,4083.8461914063,4109.8715820313,4092.6923828125,4124.3588867188,33025,0,0
1927,15.0546875,60,4106.1538085938,4088.4614257813,4108.0771484375,4099.7436523438,4087.6923828125,4090.1281738281,4089.4870605469,4099.615234375,4094.1025390625,4107.3076171875,4084.1025390625,4107.3076171875,4091.2819824219,4118.205078125,33025,0,0
1928,15.0625,60,4108.8461914063,4090.6411132813,4107.8203125,4105.8974609375,4094.6154785156,4095.2563476563,4091.9230957031,4098.0771484375,4092.6923828125,4102.8203125,4082.5642089844,4098.4614257813,4092.3076171875,4119.4873046875,33025,0,0
1929,15.0703125,60,4108.0771484375,4093.9743652344,4112.4360351563,4108.9741210938,4104.615234375,4092.6923828125,4085.0,4091.5385742188,4091.1538085938,4097.4360351563,4084.2307128906,4091.5385742188,4094.4870605469,4122.1796875,33025,0,0
1930,15.078125,60,4106.1538085938,4088.58984375,4109.1025390625,4106.0258789063,4104.7436523438,4089.4870605469,4074.6154785156,4088.8461914063,4083.7180175781,4093.9743652344,4083.4614257813,4089.1025390625,4092.9487304688,4112.4360351563,33025,0,0
1931,15.0859375,60,4105.0,4080.7692871094,4104.3588867188,4100.0,4094.7436523438,4089.6154785156,4077.6923828125,4089.7436523438,4076.5385742188,4088.3332519531,4078.4614257813,4091.794921875,4091.1538085938,4105.384765625,33025,0,0
1932,15.09375,60,4103.9741210938,4086.9230957031,4111.1538085938,4098.4614257813,4092.9487304688,4092.9487304688,4090.2563476563,4092.4357910156,4080.1281738281,4090.5129394531,4080.5129394531,4092.8205566406,4093.9743652344,4114.615234375,33025,0,0
1933,15.1015625,60,4103.58984375,4091.2819824219,4112.1796875,4103.205078125,4094.3588867188,4090.3845214844,4087.8205566406,4095.7692871094,4089.6154785156,4103.205078125,4090.8974609375,4092.0512695313,4099.3588867188,4123.9741210938,33025,0,0
1934,15.109375,60,4104.615234375,4080.2563476563,4105.384765625,4101.6665039063,4087.9487304688,4082.0512695313,4077.0512695313,4094.1025390625,4088.3332519531,4101.6665039063,4089.1025390625,4091.9230957031,4096.6665039063,4118.9741210938,33025,0,0
1935,15.1171875,60,4105.8974609375,4078.205078125,4109.615234375,4097.1796875,4091.2819824219,4080.6411132813,4081.1538085938,4091.0256347656,4080.5129394531,4088.4614257813,4082.8205566406,4089.6154785156,4090.1281738281,4113.4614257813,33025,0,0
1936,15.125,60,4105.5126953125,4091.5385742188,4115.384765625,4103.58984375,4098.205078125,4086.2819824219,4086.5385742188,4092.6923828125,4081.6667480469,4091.9230957031,4090.2563476563,4088.3332519531,4093.9743652344,4114.3588867188,33025,0,0
1937,15.1328125,60,4104.615234375,4094.3588867188,4108.3334960938,4110.2563476563,4096.2822265625,4090.0,4082.0512695313,4096.1538085938,4091.1538085938,4101.794921875,4092.6923828125,4091.1538085938,4096.41015625,4112.8203125,33025,0,0
1938,15.140625,60,4104.7436523438,4087.5642089844,4102.6923828125,4106.0258789063,4098.7177734375,4091.5385742188,4083.7180175781,4094.7436523438,4092.0512695313,4098.8461914063,4083.9743652344,4086.9230957031,4091.0256347656,4106.6665039063,33025,0,0
1939,15.1484375,60,4105.384765625,4090.8974609375,4107.1796875,4106.2822265625,4106.5385742188,4093.205078125,4089.7436523438,4090.8974609375,4085.5129394531,4098.0771484375,4090.2563476563,4088.4614257813,4095.5129394531,4103.8461914063,33025,0,0
1940,15.15625,60,4106.1538085938,4098.0771484375,4111.794921875,4112.3076171875,4108.8461914063,4094.2307128906,4088.205078125,4094.8718261719,4090.7692871094,4107.3076171875,4112.0512695313,4126.6665039063,4108.7177734375,4111.41015625,33025,0,0
1941,15.1640625,60,4105.0,4094.4870605469,4109.4873046875,4110.5126953125,4100.5126953125,4092.8205566406,4086.794921875,4104.7436523438,4101.5385742188,4110.7690429688,4123.8461914063,4171.6665039063,4113.8461914063,4120.1284179688,33025,0,0
1942,15.171875,60,4105.5126953125,4089.6154785156,4107.6923828125,4106.9228515625,4094.4870605469,4092.1794433594,4091.1538085938,4110.8974609375,4106.41015625,4109.3588867188,4123.8461914063,4180.8974609375,4115.7690429688,4125.8974609375,33025,0,0
1943,15.1796875,60,4109.1025390625,4093.205078125,4113.0771484375,4108.58984375,4095.6411132813,4094.8718261719,4094.4870605469,4110.8974609375,4106.9228515625,4109.615234375,4124.8715820313,4175.1284179688,4121.794921875,4132.9487304688,33025,0,0
1944,15.1875,60,4109.3588867188,4095.5129394531,4111.0258789063,4109.3588867188,4095.1281738281,4095.0,4091.794921875,4105.0,4101.2822265625,4109.3588867188,4125.5126953125,4163.205078125,4121.2822265625,4135.2563476563,33025,0,0
1945,15.1953125,60,4106.6665039063,4089.2307128906,4099.4873046875,4105.0,4098.205078125,4091.5385742188,4089.3588867188,4096.2822265625,4092.6923828125,4106.1538085938,4118.205078125,4125.8974609375,4111.0258789063,4125.5126953125,33025,0,0
1946,15.203125,60,4103.7177734375,4083.58984375,4093.58984375,4101.0258789063,4099.1025390625,4090.6411132813,4089.1025390625,4090.2563476563,4088.8461914063,4099.615234375,4104.7436523438,4097.6923828125,4099.7436523438,4112.0512695313,33025,0,0
1947,15.2109375,60,4103.205078125,4086.0256347656,4094.7436523438,4098.9741210938,4092.0512695313,4089.7436523438,4084.8718261719,4091.9230957031,4090.5129394531,4098.7177734375,4097.5639648438,4112.3076171875,4098.205078125,4112.5639648438,33025,0,0
1948,15.21875,60,4106.2822265625,4091.1538085938,4100.1284179688,4099.8715820313,4095.1281738281,4088.7180175781,4082.8205566406,4100.8974609375,4096.41015625,4106.6665039063,4103.7177734375,4130.6411132813,4107.1796875,4126.2822265625,33025,0,0
1949,15.2265625,60,4108.205078125,4093.4614257813,4105.8974609375,4106.41015625,4110.1284179688,4095.6411132813,4093.8461914063,4110.0,4104.615234375,4108.205078125,4112.8203125,4127.4360351563,4111.5385742188,4137.6923828125,33025,0,0
1950,15.234375,60,4107.8203125,4092.0512695313,4104.8715820313,4107.4360351563,4111.0258789063,4105.6411132813,4107.6923828125,4112.8203125,4107.9487304688,4104.2309570313,4112.0512695313,4123.205078125,4107.8203125,4138.7177734375,33025,0,0
1951,15.2421875,60,4106.41015625,4092.4357910156,4103.58984375,4101.0258789063,4105.384765625,4108.4614257813,4110.7690429688,4114.4873046875,4106.9228515625,4107.5639648438,4111.2822265625,4126.2822265625,4106.5385742188,4138.9741210938,33025,0,0
1952,15.25,61,4104.615234375,4091.6667480469,4106.6665039063,4096.0258789063,4112.0512695313,4106.5385742188,4108.0771484375,4120.2563476563,4108.58984375,4111.0258789063,4119.615234375,4127.5639648438,4110.2563476563,4141.41015625,33025,0,0
1953,15.2578125,61,4103.8461914063,4087.8205566406,4104.3588867188,4097.4360351563,4109.7436523438,4106.6665039063,4108.8461914063,4121.9228515625,4110.1284179688,4111.1538085938,4123.9741210938,4121.794921875,4111.5385742188,4137.1796875,33025,0,0
1954,15.265625,61,4106.41015625,4095.5129394531,4104.8715820313,4105.1284179688,4106.0258789063,4110.7690429688,4110.7690429688,4122.3076171875,4110.6411132813,4112.9487304688,4116.2822265625,4117.6923828125,4108.205078125,4135.7690429688,33025,0,0
1955,15.2734375,61,4108.4614257813,4105.384765625,4106.6665039063,4108.7177734375,4112.3076171875,4110.2563476563,4110.0,4124.4873046875,4110.1284179688,4111.1538085938,4109.4873046875,4116.1538085938,4103.58984375,4136.2822265625,33025,0,0
1956,15.28125,61,4107.0512695313,4095.5129394531,4099.4873046875,4096.5385742188,4100.6411132813,4100.0,4105.5126953125,4117.6923828125,4106.5385742188,4106.9228515625,4106.9228515625,4108.9741210938,4100.8974609375,4127.6923828125,33025,0,0
1957,15.2890625,61,4105.0,4085.2563476563,4099.7436523438,4091.1538085938,4092.0512695313,4096.5385742188,4101.1538085938,4108.4614257813,4105.0,4106.41015625,4105.6411132813,4105.7690429688,4098.7177734375,4123.0771484375,33025,0,0
1958,15.296875,61,4104.615234375,4095.1281738281,4107.0512695313,4101.2822265625,4108.205078125,4105.7690429688,4097.5639648438,4108.58984375,4105.0,4106.41015625,4106.794921875,4108.0771484375,4097.0512695313,4127.3076171875,33025,0,0
1959,15.3046875,61,4105.8974609375,4099.615234375,4104.2309570313,4102.1796875,4115.0,4105.384765625,4096.41015625,4111.0258789063,4103.205078125,4105.2563476563,4107.0512695313,4103.0771484375,4099.1025390625,4128.58984375,33025,0,0
1960,15.3125,61,4108.4614257813,4096.0258789063,4103.9741210938,4100.2563476563,4104.4873046875,4099.615234375,4101.6665039063,4112.4360351563,4104.2309570313,4107.3076171875,4107.0512695313,4109.3588867188,4104.7436523438,4131.5385742188,33025,0,0
1961,15.3203125,61,4109.7436523438,4100.5126953125,4108.9741210938,4107.3076171875,4106.1538085938,4102.9487304688,4108.3334960938,4119.8715820313,4107.9487304688,4110.384765625,4108.205078125,4122.1796875,4108.8461914063,4139.615234375,33025,0,0
1962,15.328125,61,4108.8461914063,4097.8203125,4101.0258789063,4104.2309570313,4109.8715820313,4101.1538085938,4107.9487304688,4123.4614257813,4108.3334960938,4108.0771484375,4108.3334960938,4113.0771484375,4107.0512695313,4136.5385742188,33025,0,0
1963,15.3359375,61,4113.4614257813,4091.794921875,4096.2822265625,4097.4360351563,4103.8461914063,4095.0,4103.205078125,4119.615234375,4107.0512695313,4105.384765625,4106.794921875,4107.4360351563,4105.8974609375,4132.1796875,33025,0,0
1964,15.34375,61,4118.9741210938,4101.2822265625,4106.794921875,4104.615234375,4104.1025390625,4100.5126953125,4105.7690429688,4121.1538085938,4106.5385742188,4108.58984375,4106.2822265625,4125.6411132813,4106.6665039063,4139.8715820313,33025,0,0
1965,15.3515625,61,4113.7177734375,4106.9228515625,4110.6411132813,4109.615234375,4109.3588867188,4109.2309570313,4114.4873046875,4125.384765625,4107.6923828125,4113.8461914063,4112.5639648438,4130.1284179688,4104.7436523438,4143.0771484375,33025,0,0
1966,15.359375,61,4107.5639648438,4096.1538085938,4108.3334960938,4105.2563476563,4113.7177734375,4107.1796875,4116.5385742188,4124.7436523438,4111.2822265625,4114.3588867188,4122.6923828125,4119.615234375,4105.1284179688,4138.3334960938,33025,0,0
1967,15.3671875,61,4108.4614257813,4090.7692871094,4106.794921875,4102.6923828125,4114.2309570313,4100.7690429688,4109.615234375,4122.0512695313,4108.58984375,4112.0512695313,4121.5385742188,4123.8461914063,4108.7177734375,4137.4360351563,33025,0,0
1968,15.375,61,4109.2309570313,4093.4614257813,4102.0512695313,4099.1025390625,4104.7436523438,4096.2822265625,4104.615234375,4120.2563476563,4096.2822265625,4108.8461914063,4110.2563476563,4122.6923828125,4110.0,4135.6411132813,33025,0,0
1969,15.3828125,61,4106.794921875,4093.4614257813,4101.794921875,4099.1025390625,4100.5126953125,4096.6665039063,4107.9487304688,4120.1284179688,4091.9230957031,4105.8974609375,4105.7690429688,4107.3076171875,4106.2822265625,4129.1025390625,33025,0,0
1970,15.390625,61,4107.1796875,4092.6923828125,4108.0771484375,4105.1284179688,4104.8715820313,4098.8461914063,4109.7436523438,4118.7177734375,4100.1284179688,4105.7690429688,4102.6923828125,4102.6923828125,4098.58984375,4123.205078125,33025,0,0
1971,15.3984375,61,4108.7177734375,4093.8461914063,4106.0258789063,4107.3076171875,4106.2822265625,4096.6665039063,4106.41015625,4116.5385742188,4104.1025390625,4106.9228515625,4092.5642089844,4106.9228515625,4091.41015625,4120.6411132813,33025,0,0
1972,15.40625,61,4108.7177734375,4093.8461914063,4106.0258789063,4107.3076171875,4106.2822265625,4096.6665039063,4106.41015625,4116.5385742188,4104.1025390625,4106.9228515625,4092.5642089844,4106.9228515625,4091.41015625,4120.6411132813,33025,0,0
1973,15.4140625,61,4108.4614257813,4101.0258789063,4102.3076171875,4105.6411132813,4113.8461914063,4098.4614257813,4105.8974609375,4116.2822265625,4104.4873046875,4107.6923828125,4093.205078125,4103.7177734375,4090.6411132813,4122.6923828125,33025,0,0
1974,15.421875,61,4107.6923828125,4107.1796875,4106.794921875,4108.205078125,4121.41015625,4106.9228515625,4111.2822265625,4114.615234375,4103.9741210938,4108.58984375,4105.384765625,4092.9487304688,4095.0,4125.6411132813,33025,0,0
1975,15.4296875,61,4110.384765625,4101.1538085938,4108.4614257813,4109.615234375,4106.794921875,4104.3588867188,4112.8203125,4110.384765625,4096.5385742188,4107.9487304688,4110.0,4090.0,4101.0258789063,4125.384765625,33025,0,0
1976,15.4375,61,4112.8203125,4093.58984375,4106.1538085938,4104.615234375,4097.8203125,4095.8974609375,4108.0771484375,4105.8974609375,4088.3332519531,4105.5126953125,4105.7690429688,4095.8974609375,4102.9487304688,4124.615234375,33025,0,0
1977,15.4453125,61,4109.1025390625,4092.5642089844,4106.2822265625,4101.1538085938,4101.794921875,4093.205078125,4105.6411132813,4104.1025390625,4087.4357910156,4104.1025390625,4108.4614257813,4096.2822265625,4101.41015625,4122.3076171875,33025,0,0
1978,15.453125,61,4106.41015625,4096.6665039063,4107.6923828125,4104.2309570313,4091.9230957031,4092.0512695313,4105.8974609375,4114.615234375,4097.4360351563,4108.7177734375,4121.794921875,4090.5129394531,4105.6411132813,4126.6665039063,33025,0,0
1979,15.4609375,61,4108.7177734375,4103.3334960938,4108.8461914063,4107.3076171875,4091.794921875,4094.8718261719,4106.1538085938,4122.0512695313,4109.1025390625,4113.9741210938,4127.5639648438,4089.7436523438,4112.5639648438,4139.1025390625,33025,0,0
1980,15.46875,61,4111.41015625,4103.4614257813,4108.8461914063,4105.6411132813,4111.794921875,4101.5385742188,4106.2822265625,4111.794921875,4106.1538085938,4110.8974609375,4117.4360351563,4093.4614257813,4108.58984375,4138.4614257813,33025,0,0
1981,15.4765625,61,4109.7436523438,4098.8461914063,4107.1796875,4105.8974609375,4114.7436523438,4103.8461914063,4106.6665039063,4104.8715820313,4095.5129394531,4106.9228515625,4107.1796875,4093.3332519531,4098.7177734375,4123.8461914063,33025,0,0
1982,15.484375,61,4107.6923828125,4098.58984375,4105.1284179688,4108.58984375,4107.3076171875,4105.0,4108.9741210938,4108.7177734375,4094.2307128906,4108.58984375,4102.9487304688,4088.7180175781,4096.9228515625,4120.0,33025,0,0
1983,15.4921875,61,4110.2563476563,4100.5126953125,4107.8203125,4109.8715820313,4110.0,4107.9487304688,4113.4614257813,4111.2822265625,4100.8974609375,4108.205078125,4102.0512695313,4091.9230957031,4103.3334960938,4130.5126953125,33025,0,0
1984,15.5,62,4111.2822265625,4097.1796875,4109.2309570313,4108.205078125,4104.3588867188,4102.9487304688,4116.6665039063,4117.0512695313,4104.3588867188,4106.5385742188,4106.0258789063,4099.1025390625,4108.3334960938,4138.4614257813,33025,0,0
1985,15.5078125,62,4109.1025390625,4091.6667480469,4104.4873046875,4102.8203125,4094.7436523438,4093.8461914063,4114.3588867188,4123.4614257813,4104.4873046875,4109.3588867188,4109.4873046875,4098.58984375,4109.2309570313,4141.1538085938,33025,0,0
1986,15.515625,62,4107.9487304688,4090.0,4103.58984375,4101.5385742188,4098.7177734375,4095.0,4110.8974609375,4113.7177734375,4104.615234375,4108.58984375,4108.8461914063,4089.1025390625,4106.0258789063,4136.9228515625,33025,0,0
1987,15.5234375,62,4108.3334960938,4096.6665039063,4107.4360351563,4106.1538085938,4102.5639648438,4103.9741210938,4112.0512695313,4105.0,4102.0512695313,4107.1796875,4107.1796875,4083.205078125,4097.5639648438,4127.6923828125,33025,0,0
1988,15.53125,62,4107.9487304688,4107.3076171875,4107.3076171875,4109.3588867188,4106.2822265625,4109.1025390625,4115.6411132813,4113.9741210938,4098.8461914063,4108.7177734375,4103.7177734375,4085.2563476563,4095.0,4123.3334960938,33025,0,0
1989,15.5390625,62,4107.6923828125,4105.8974609375,4104.3588867188,4108.0771484375,4108.0771484375,4100.6411132813,4112.1796875,4119.1025390625,4100.6411132813,4106.9228515625,4100.2563476563,4083.7180175781,4099.1025390625,4119.7436523438,33025,0,0
1990,15.546875,62,4107.8203125,4099.4873046875,4103.58984375,4107.9487304688,4101.0258789063,4094.2307128906,4108.9741210938,4113.3334960938,4107.5639648438,4111.794921875,4106.9228515625,4079.4870605469,4104.2309570313,4118.4614257813,33025,0,0
1991,15.5546875,62,4106.0258789063,4098.8461914063,4106.1538085938,4108.8461914063,4098.8461914063,4099.615234375,4112.9487304688,4109.3588867188,4106.1538085938,4119.2309570313,4109.8715820313,4080.8974609375,4106.5385742188,4121.6665039063,33025,0,0
1992,15.5625,62,4106.41015625,4096.41015625,4107.9487304688,4108.0771484375,4106.5385742188,4098.8461914063,4110.6411132813,4109.7436523438,4094.7436523438,4110.2563476563,4093.205078125,4083.9743652344,4096.41015625,4118.0771484375,33025,0,0
1993,15.5703125,62,4105.5126953125,4091.41015625,4102.9487304688,4107.0512695313,4106.2822265625,4091.1538085938,4104.4873046875,4106.41015625,4089.2307128906,4095.5129394531,4078.3332519531,4076.41015625,4083.3332519531,4106.5385742188,33025,0,0
1994,15.578125,62,4102.1796875,4094.7436523438,4097.0512695313,4106.1538085938,4089.7436523438,4090.0,4105.5126953125,4101.9228515625,4089.6154785156,4093.3332519531,4083.4614257813,4066.6667480469,4084.3588867188,4102.4360351563,33025,0,0
1995,15.5859375,62,4103.205078125,4099.8715820313,4099.2309570313,4105.7690429688,4084.7436523438,4094.2307128906,4107.9487304688,4104.4873046875,4089.3588867188,4097.8203125,4092.0512695313,4073.58984375,4093.3332519531,4108.0771484375,33025,0,0
1996,15.59375,62,4102.9487304688,4096.1538085938,4099.3588867188,4103.4614257813,4101.41015625,4095.3845214844,4105.5126953125,4108.3334960938,4089.1025390625,4098.205078125,4090.0,4081.0256347656,4095.6411132813,4113.205078125,33025,0,0
1997,15.6015625,62,4097.0512695313,4089.8718261719,4092.0512695313,4098.0771484375,4103.7177734375,4091.5385742188,4103.8461914063,4102.8203125,4086.5385742188,4094.4870605469,4082.4357910156,4070.2563476563,4087.3076171875,4108.9741210938,33025,0,0
1998,15.609375,62,4092.4357910156,4084.6154785156,4088.3332519531,4093.7180175781,4089.7436523438,4090.7692871094,4106.0258789063,4096.794921875,4084.1025390625,4090.2563476563,4075.2563476563,4057.9487304688,4079.6154785156,4097.0512695313,33025,0,0
1999,15.6171875,62,4092.9487304688,4078.4614257813,4090.8974609375,4094.7436523438,4090.8974609375,4093.205078125,4108.3334960938,4098.8461914063,4084.6154785156,4091.6667480469,4074.6154785156,4057.3076171875,4083.205078125,4092.0512695313,33025,0,0
2000,15.625,62,4091.6667480469,4074.7436523438,4091.5385742188,4090.7692871094,4092.5642089844,4087.5642089844,4105.8974609375,4093.0769042969,4077.6923828125,4091.0256347656,4076.794921875,4053.205078125,4087.8205566406,4093.205078125,33025,0,0
2001,15.6328125,62,4089.7436523438,4073.4614257813,4088.58984375,4083.3332519531,4076.41015625,4076.794921875,4096.2822265625,4081.5385742188,4069.4870605469,4087.3076171875,4071.1538085938,4050.6411132813,4081.6667480469,4091.794921875,33025,0,0
2002,15.640625,62,4093.0769042969,4073.4614257813,4089.6154785156,4087.1794433594,4071.5385742188,4074.1025390625,4090.7692871094,4084.1025390625,4073.9743652344,4086.9230957031,4066.794921875,4056.0256347656,4079.6154785156,4091.0256347656,33025,0,0
2003,15.6484375,62,4094.4870605469,4076.1538085938,4095.0,4091.9230957031,4075.2563476563,4073.205078125,4093.205078125,4087.9487304688,4076.0256347656,4087.5642089844,4068.3332519531,4065.1281738281,4083.4614257813,4094.3588867188,33025,0,0
2004,15.65625,62,4091.41015625,4077.4357910156,4087.4357910156,4085.2563476563,4069.2307128906,4065.6411132813,4088.8461914063,4078.3332519531,4064.2307128906,4081.794921875,4062.9487304688,4073.0769042969,4073.58984375,4091.794921875,33025,0,0
2005,15.6640625,62,4089.8718261719,4074.8718261719,4074.1025390625,4080.3845214844,4069.3588867188,4060.8974609375,4081.9230957031,4071.794921875,4061.794921875,4075.2563476563,4056.41015625,4070.8974609375,4064.4870605469,4081.5385742188,33025,0,0
2006,15.671875,62,4089.8718261719,4074.3588867188,4077.5642089844,4082.9487304688,4077.5642089844,4063.8461914063,4087.0512695313,4075.1281738281,4073.3332519531,4078.7180175781,4057.5642089844,4065.3845214844,4069.3588867188,4078.9743652344,33025,0,0
2007,15.6796875,62,4091.1538085938,4076.41015625,4085.2563476563,4083.9743652344,4082.3076171875,4068.58984375,4091.2819824219,4077.4357910156,4076.0256347656,4082.8205566406,4058.58984375,4070.1281738281,4074.8718261719,4089.8718261719,33025,0,0
2008,15.6875,62,4090.8974609375,4072.8205566406,4080.5129394531,4082.5642089844,4076.6667480469,4067.9487304688,4079.7436523438,4074.6154785156,4066.6667480469,4078.4614257813,4056.0256347656,4072.6923828125,4070.1281738281,4095.0,33025,0,0
2009,15.6953125,62,4086.41015625,4064.8718261719,4072.0512695313,4077.5642089844,4066.9230957031,4063.0769042969,4070.6411132813,4064.7436523438,4059.3588867188,4072.4357910156,4048.58984375,4064.3588867188,4059.2307128906,4077.1794433594,33025,0,0
2010,15.703125,62,4086.41015625,4066.2819824219,4074.3588867188,4074.2307128906,4067.0512695313,4065.5129394531,4081.6667480469,4062.5642089844,4062.1794433594,4075.2563476563,4048.3332519531,4066.0256347656,4061.41015625,4067.3076171875,33025,0,0
2011,15.7109375,62,4092.3076171875,4074.7436523438,4086.2819824219,4082.9487304688,4075.8974609375,4070.3845214844,4088.9743652344,4073.4614257813,4062.9487304688,4080.7692871094,4061.41015625,4080.8974609375,4073.58984375,4084.4870605469,33025,0,0
2012,15.71875,62,4094.6154785156,4075.7692871094,4095.3845214844,4091.5385742188,4075.7692871094,4067.3076171875,4082.4357910156,4077.3076171875,4059.1025390625,4078.4614257813,4068.8461914063,4089.1025390625,4076.9230957031,4098.58984375,33025,0,0
2013,15.7265625,62,4095.8974609375,4073.3332519531,4091.794921875,4092.5642089844,4073.7180175781,4066.1538085938,4085.5129394531,4074.4870605469,4062.4357910156,4076.9230957031,4058.58984375,4084.4870605469,4069.1025390625,4094.2307128906,33025,0,0
2014,15.734375,62,4093.4614257813,4070.7692871094,4082.1794433594,4093.4614257813,4078.205078125,4069.8718261719,4093.0769042969,4078.8461914063,4065.1281738281,4074.3588867188,4041.6667480469,4073.0769042969,4060.3845214844,4081.5385742188,33025,0,0
2015,15.7421875,62,4086.794921875,4062.9487304688,4076.2819824219,4086.0256347656,4075.6411132813,4066.5385742188,4086.794921875,4077.3076171875,4056.1538085938,4070.6411132813,4032.9487304688,4056.0256347656,4053.4614257813,4070.7692871094,33025,0,0
2016,15.75,63,4084.7436523438,4061.41015625,4081.1538085938,4076.41015625,4076.41015625,4064.8718261719,4081.0256347656,4067.3076171875,4047.8205566406,4070.3845214844,4032.5642089844,4048.9743652344,4050.2563476563,4068.58984375,33025,0,0
2017,15.7578125,63,4089.7436523438,4067.9487304688,4088.3332519531,4082.5642089844,4081.6667480469,4072.1794433594,4087.4357910156,4066.9230957031,4053.58984375,4071.1538085938,4038.3332519531,4062.9487304688,4056.2819824219,4073.8461914063,33025,0,0
2018,15.765625,63,4093.0769042969,4071.6667480469,4082.3076171875,4092.5642089844,4076.6667480469,4072.1794433594,4090.8974609375,4074.3588867188,4060.2563476563,4076.9230957031,4047.6923828125,4076.0256347656,4063.58984375,4077.6923828125,33025,0,0
2019,15.7734375,63,4091.41015625,4072.4357910156,4080.8974609375,4091.0256347656,4077.0512695313,4066.6667480469,4090.6411132813,4081.6667480469,4061.2819824219,4085.7692871094,4060.6411132813,4078.4614257813,4069.6154785156,4084.6154785156,33025,0,0
2020,15.78125,63,4090.0,4075.3845214844,4095.3845214844,4086.9230957031,4083.3332519531,4064.7436523438,4088.8461914063,4087.8205566406,4062.1794433594,4088.0769042969,4070.5129394531,4083.58984375,4074.2307128906,4095.8974609375,33025,0,0
2021,15.7890625,63,4095.3845214844,4083.7180175781,4108.205078125,4097.1796875,4079.3588867188,4065.2563476563,4087.6923828125,4090.7692871094,4064.2307128906,4083.7180175781,4074.4870605469,4095.6411132813,4078.0769042969,4100.7690429688,33025,0,0
2022,15.796875,63,4102.5639648438,4091.5385742188,4120.384765625,4111.1538085938,4077.8205566406,4070.1281738281,4099.3588867188,4092.8205566406,4067.8205566406,4088.58984375,4083.4614257813,4112.4360351563,4085.8974609375,4113.205078125,33025,0,0
2023,15.8046875,63,4109.8715820313,4093.4614257813,4142.5639648438,4112.9487304688,4088.8461914063,4076.2819824219,4105.7690429688,4089.2307128906,4067.3076171875,4091.5385742188,4091.5385742188,4134.7436523438,4096.9228515625,4135.7690429688,33025,0,0
2024,15.8125,63,4116.794921875,4101.2822265625,4167.4360351563,4120.7690429688,4095.7692871094,4078.205078125,4096.2822265625,4082.0512695313,4063.58984375,4084.1025390625,4102.4360351563,4156.0258789063,4103.205078125,4139.1025390625,33025,0,0
2025,15.8203125,63,4118.8461914063,4118.3334960938,4195.6411132813,4150.7690429688,4091.41015625,4074.4870605469,4093.205078125,4084.2307128906,4063.4614257813,4085.8974609375,4118.8461914063,4183.205078125,4107.3076171875,4130.0,33025,0,0
2026,15.828125,63,4125.0,4129.1025390625,4220.2563476563,4167.6923828125,4083.7180175781,4070.3845214844,4098.8461914063,4091.0256347656,4066.794921875,4092.6923828125,4129.615234375,4215.7690429688,4117.5639648438,4140.8974609375,33025,0,0
2027,15.8359375,63,4135.5126953125,4136.41015625,4221.9228515625,4156.2822265625,4083.8461914063,4071.6667480469,4100.0,4089.3588867188,4070.6411132813,4091.2819824219,4129.2309570313,4228.0771484375,4124.1025390625,4161.0258789063,33025,0,0
2028,15.84375,63,4133.58984375,4143.205078125,4221.6665039063,4161.0258789063,4097.1796875,4078.205078125,4103.58984375,4088.8461914063,4070.7692871094,4088.9743652344,4121.2822265625,4220.2563476563,4120.2563476563,4155.384765625,33025,0,0
2029,15.8515625,63,4120.8974609375,4130.5126953125,4221.41015625,4174.8715820313,4100.0,4078.3332519531,4109.8715820313,4092.8205566406,4069.3588867188,4090.6411132813,4109.4873046875,4204.1025390625,4110.2563476563,4133.9741210938,33025,0,0
2030,15.859375,63,4113.7177734375,4110.0,4197.3076171875,4156.6665039063,4082.9487304688,4071.794921875,4105.8974609375,4087.8205566406,4066.5385742188,4089.3588867188,4094.7436523438,4176.6665039063,4099.615234375,4118.205078125,33025,0,0
2031,15.8671875,63,4112.3076171875,4105.1284179688,4169.2309570313,4133.7177734375,4080.0,4072.1794433594,4097.4360351563,4078.3332519531,4061.9230957031,4083.205078125,4083.58984375,4149.1025390625,4088.8461914063,4105.6411132813,33025,0,0
2032,15.875,63,4107.9487304688,4106.6665039063,4158.9741210938,4135.0,4085.2563476563,4074.2307128906,4091.2819824219,4072.4357910156,4056.9230957031,4080.5129394531,4076.1538085938,4137.6923828125,4080.3845214844,4094.3588867188,33025,0,0
2033,15.8828125,63,4104.615234375,4104.7436523438,4152.3076171875,4138.0771484375,4076.2819824219,4073.58984375,4093.8461914063,4071.9230957031,4061.6667480469,4085.7692871094,4073.4614257813,4136.9228515625,4080.7692871094,4090.0,33025,0,0
2034,15.890625,63,4103.8461914063,4102.3076171875,4138.7177734375,4129.4873046875,4078.7180175781,4077.9487304688,4107.0512695313,4082.8205566406,4074.7436523438,4091.6667480469,4075.6411132813,4124.615234375,4083.9743652344,4091.9230957031,33025,0,0
2035,15.8984375,63,4101.794921875,4097.8203125,4120.8974609375,4121.6665039063,4087.3076171875,4079.3588867188,4106.41015625,4087.8205566406,4072.5642089844,4086.0256347656,4068.0769042969,4100.2563476563,4078.9743652344,4082.6923828125,33025,0,0
2036,15.90625,63,4096.794921875,4095.3845214844,4106.5385742188,4116.6665039063,4082.1794433594,4073.9743652344,4095.8974609375,4072.1794433594,4057.8205566406,4079.7436523438,4053.8461914063,4091.2819824219,4069.1025390625,4066.6667480469,33025,0,0
2037,15.9140625,63,4093.205078125,4097.9487304688,4107.1796875,4113.8461914063,4084.1025390625,4073.7180175781,4097.4360351563,4059.3588867188,4055.2563476563,4082.0512695313,4050.3845214844,4096.1538085938,4065.6411132813,4062.4357910156,33025,0,0
2038,15.921875,63,4093.3332519531,4092.1794433594,4101.6665039063,4107.1796875,4091.41015625,4077.3076171875,4099.7436523438,4067.0512695313,4061.0256347656,4083.0769042969,4051.794921875,4087.0512695313,4064.8718261719,4063.205078125,33025,0,0
2039,15.9296875,63,4089.2307128906,4079.6154785156,4081.41015625,4092.0512695313,4080.0,4071.6667480469,4092.1794433594,4073.58984375,4057.8205566406,4078.8461914063,4041.2819824219,4065.0,4058.4614257813,4055.6411132813,33025,0,0
2040,15.9375,63,4085.5129394531,4081.2819824219,4078.58984375,4085.7692871094,4068.4614257813,4064.3588867188,4089.6154785156,4068.3332519531,4053.4614257813,4077.5642089844,4031.6667480469,4057.6923828125,4054.6154785156,4049.1025390625,33025,0,0
2041,15.9453125,63,4086.5385742188,4087.8205566406,4086.41015625,4094.2307128906,4072.3076171875,4063.8461914063,4091.794921875,4064.3588867188,4054.7436523438,4079.7436523438,4035.1281738281,4066.0256347656,4055.5129394531,4054.6154785156,33025,0,0
2042,15.953125,63,4087.1794433594,4083.9743652344,4080.0,4096.1538085938,4066.5385742188,4062.9487304688,4090.8974609375,4064.2307128906,4051.5385742188,4078.0769042969,4037.8205566406,4065.5129394531,4056.2819824219,4058.9743652344,33025,0,0
2043,15.9609375,63,4090.7692871094,4083.3332519531,4076.0256347656,4091.6667480469,4063.7180175781,4065.3845214844,4093.3332519531,4067.8205566406,4049.4870605469,4074.2307128906,4035.8974609375,4058.4614257813,4060.1281738281,4059.3588867188,33025,0,0
2044,15.96875,63,4092.3076171875,4092.1794433594,4078.205078125,4091.41015625,4073.9743652344,4073.7180175781,4098.58984375,4068.58984375,4052.5642089844,4073.3332519531,4036.6667480469,4060.2563476563,4062.6923828125,4062.1794433594,33025,0,0
2045,15.9765625,63,4086.9230957031,4092.1794433594,4071.1538085938,4092.5642089844,4074.6154785156,4076.2819824219,4097.8203125,4063.0769042969,4050.7692871094,4076.0256347656,4036.9230957031,4061.6667480469,4059.6154785156,4060.0,33025,0,0
2046,15.984375,63,4082.5642089844,4083.4614257813,4067.5642089844,4088.9743652344,4069.8718261719,4074.1025390625,4094.6154785156,4062.6923828125,4048.205078125,4076.2819824219,4036.41015625,4051.0256347656,4058.3332519531,4053.0769042969,33025,0,0
2047,15.9921875,63,4083.3332519531,4084.1025390625,4073.9743652344,4088.0769042969,4072.5642089844,4074.3588867188,4098.9741210938,4067.6923828125,4050.2563476563,4073.205078125,4037.0512695313,4042.6923828125,4060.5129394531,4053.205078125,33025,0,0
2048,16.0,64,4085.6411132813,4091.2819824219,4075.7692871094,4091.5385742188,4082.4357910156,4075.2563476563,4103.58984375,4067.4357910156,4050.7692871094,4075.1281738281,4036.0256347656,4047.0512695313,4061.9230957031,4056.794921875,33025,0,0
2049,16.0078125,64,4081.794921875,4090.3845214844,4068.3332519531,4086.6667480469,4076.6667480469,4073.9743652344,4096.5385742188,4064.3588867188,4048.4614257813,4075.7692871094,4032.5642089844,4045.5129394531,4061.1538085938,4054.2307128906,33025,0,0
2050,16.015625,64,4077.8205566406,4083.205078125,4057.8205566406,4076.5385742188,4056.9230957031,4068.3332519531,4090.2563476563,4062.1794433594,4044.7436523438,4066.9230957031,4027.3076171875,4028.9743652344,4056.2819824219,4047.0512695313,33025,0,0
2051,16.0234375,64,4082.8205566406,4084.3588867188,4060.5129394531,4079.7436523438,4061.794921875,4066.0256347656,4094.2307128906,4061.1538085938,4041.1538085938,4063.7180175781,4024.4870605469,4022.6923828125,4050.3845214844,4045.8974609375,33025,0,0
2052,16.03125,64,4087.8205566406,4092.1794433594,4074.7436523438,4092.5642089844,4083.7180175781,4069.8718261719,4094.7436523438,4062.5642089844,4045.1281738281,4072.8205566406,4034.3588867188,4037.9487304688,4057.5642089844,4053.7180175781,33025,0,0
2053,16.0390625,64,4085.1281738281,4092.8205566406,4073.58984375,4096.0258789063,4083.7180175781,4070.7692871094,4090.3845214844,4066.0256347656,4055.1281738281,4080.5129394531,4049.2307128906,4048.4614257813,4070.2563476563,4060.0,33025,0,0
2054,16.046875,64,4082.8205566406,4089.7436523438,4061.9230957031,4090.0,4070.0,4063.7180175781,4089.7436523438,4070.1281738281,4060.5129394531,4084.4870605469,4056.1538085938,4042.1794433594,4075.8974609375,4063.9743652344,33025,0,0
2055,16.0546875,64,4089.1025390625,4092.4357910156,4069.3588867188,4090.3845214844,4073.9743652344,4061.794921875,4090.7692871094,4073.9743652344,4061.0256347656,4092.4357910156,4063.8461914063,4043.3332519531,4082.5642089844,4073.7180175781,33025,0,0
2056,16.0625,64,4092.0512695313,4093.4614257813,4080.0,4094.1025390625,4078.0769042969,4066.794921875,4092.3076171875,4075.1281738281,4061.5385742188,4093.4614257813,4069.6154785156,4052.9487304688,4086.2819824219,4081.1538085938,33025,0,0
2057,16.0703125,64,4088.0769042969,4094.3588867188,4075.2563476563,4091.41015625,4067.4357910156,4066.0256347656,4091.0256347656,4073.3332519531,4061.1538085938,4085.0,4063.7180175781,4053.8461914063,4080.3845214844,4078.4614257813,33025,0,0
2058,16.078125,64,4090.7692871094,4102.4360351563,4077.8205566406,4090.5129394531,4065.8974609375,4067.4357910156,4091.794921875,4075.0,4060.2563476563,4080.6411132813,4057.8205566406,4051.5385742188,4078.3332519531,4078.3332519531,33025,0,0
2059,16.0859375,64,4091.9230957031,4102.4360351563,4080.1281738281,4096.1538085938,4082.4357910156,4075.6411132813,4101.6665039063,4079.2307128906,4063.9743652344,4083.0769042969,4061.41015625,4049.7436523438,4080.5129394531,4079.7436523438,33025,0,0
2060,16.09375,64,4090.7692871094,4092.0512695313,4068.58984375,4094.4870605469,4090.6411132813,4079.4870605469,4106.794921875,4078.3332519531,4066.41015625,4082.6923828125,4063.8461914063,4044.7436523438,4076.6667480469,4075.1281738281,33025,0,0
2061,16.1015625,64,4091.794921875,4088.9743652344,4067.6923828125,4086.41015625,4079.2307128906,4075.5129394531,4096.6665039063,4077.3076171875,4063.0769042969,4077.6923828125,4061.2819824219,4037.0512695313,4072.8205566406,4074.3588867188,33025,0,0
2062,16.109375,64,4088.8461914063,4090.6411132813,4074.3588867188,4080.8974609375,4072.0512695313,4072.8205566406,4092.8205566406,4077.0512695313,4059.8718261719,4074.7436523438,4053.7180175781,4027.4357910156,4072.8205566406,4070.0,33025,0,0
2063,16.1171875,64,4087.0512695313,4088.4614257813,4070.2563476563,4081.794921875,4071.9230957031,4075.6411132813,4100.7690429688,4070.1281738281,4059.3588867188,4074.6154785156,4047.5642089844,4025.0,4072.0512695313,4060.5129394531,33025,0,0
2064,16.125,64,4087.0512695313,4088.4614257813,4070.2563476563,4081.794921875,4071.9230957031,4075.6411132813,4100.7690429688,4070.1281738281,4059.3588867188,4074.6154785156,4047.5642089844,4025.0,4072.0512695313,4060.5129394531,33025,0,0
2065,16.1328125,64,4088.7180175781,4089.7436523438,4064.8718261719,4086.5385742188,4063.205078125,4075.3845214844,4100.7690429688,4066.0256347656,4059.3588867188,4077.9487304688,4055.1281738281,4034.7436523438,4076.9230957031,4065.1281738281,33025,0,0
2066,16.140625,64,4091.794921875,4091.0256347656,4064.6154785156,4086.794921875,4063.9743652344,4076.5385742188,4098.9741210938,4071.2819824219,4061.2819824219,4086.6667480469,4060.1281738281,4038.3332519531,4085.7692871094,4073.9743652344,33025,0,0
2067,16.1484375,64,4092.4357910156,4088.0769042969,4068.3332519531,4085.2563476563,4077.9487304688,4076.1538085938,4102.0512695313,4079.3588867188,4070.8974609375,4093.205078125,4061.9230957031,4035.2563476563,4092.9487304688,4076.41015625,33025,0,0
2068,16.15625,64,4092.3076171875,4091.2819824219,4078.9743652344,4089.7436523438,4081.6667480469,4071.2819824219,4094.4870605469,4088.0769042969,4079.3588867188,4091.0256347656,4074.3588867188,4050.2563476563,4096.794921875,4087.6923828125,33025,0,0
2069,16.1640625,64,4094.4870605469,4094.4870605469,4087.4357910156,4096.0258789063,4077.1794433594,4070.8974609375,4083.3332519531,4087.3076171875,4075.8974609375,4090.1281738281,4078.0769042969,4064.4870605469,4096.0258789063,4095.8974609375,33025,0,0
2070,16.171875,64,4091.6667480469,4086.6667480469,4079.1025390625,4093.58984375,4074.8718261719,4070.6411132813,4082.9487304688,4073.58984375,4067.3076171875,4093.58984375,4066.5385742188,4047.6923828125,4091.5385742188,4078.9743652344,33025,0,0
2071,16.1796875,64,4087.1794433594,4076.0256347656,4066.9230957031,4085.0,4071.6667480469,4060.2563476563,4083.7180175781,4062.5642089844,4061.41015625,4088.4614257813,4059.8718261719,4028.58984375,4084.7436523438,4061.794921875,33025,0,0
2072,16.1875,64,4084.7436523438,4076.5385742188,4065.5129394531,4078.205078125,4059.7436523438,4050.1281738281,4085.2563476563,4063.4614257813,4058.7180175781,4077.9487304688,4057.9487304688,4028.8461914063,4078.8461914063,4062.4357910156,33025,0,0
2073,16.1953125,64,4081.0256347656,4080.0,4061.5385742188,4072.8205566406,4047.9487304688,4047.8205566406,4090.3845214844,4065.3845214844,4054.7436523438,4074.7436523438,4045.6411132813,4029.1025390625,4074.3588867188,4057.3076171875,33025,0,0
2074,16.203125,64,4076.6667480469,4069.6154785156,4052.6923828125,4066.6667480469,4051.41015625,4043.7180175781,4083.8461914063,4057.5642089844,4042.9487304688,4073.58984375,4031.1538085938,4015.1281738281,4065.7692871094,4044.6154785156,33025,0,0
2075,16.2109375,64,4074.4870605469,4060.5129394531,4055.0,4063.7180175781,4064.2307128906,4042.3076171875,4075.1281738281,4045.2563476563,4032.6923828125,4066.0256347656,4028.0769042969,4002.6923828125,4058.8461914063,4043.205078125,33025,0,0
2076,16.21875,64,4075.6411132813,4064.6154785156,4057.8205566406,4068.7180175781,4062.3076171875,4043.0769042969,4076.0256347656,4040.6411132813,4036.5385742188,4060.5129394531,4029.2307128906,4009.7436523438,4059.8718261719,4045.7692871094,33025,0,0
2077,16.2265625,64,4074.4870605469,4064.3588867188,4049.3588867188,4067.3076171875,4050.5129394531,4037.5642089844,4077.8205566406,4043.3332519531,4041.41015625,4063.205078125,4024.1025390625,4020.5129394531,4059.3588867188,4041.2819824219,33025,0,0
2078,16.234375,64,4071.6667480469,4058.0769042969,4050.8974609375,4058.7180175781,4055.7692871094,4038.9743652344,4081.794921875,4048.8461914063,4045.8974609375,4072.3076171875,4023.3332519531,4019.3588867188,4060.8974609375,4043.7180175781,33025,0,0
2079,16.2421875,64,4073.4614257813,4058.205078125,4059.7436523438,4059.4870605469,4061.41015625,4046.5385742188,4088.205078125,4063.58984375,4058.0769042969,4085.0,4038.205078125,4024.1025390625,4079.7436523438,4060.2563476563,33025,0,0
2080,16.25,65,4075.6411132813,4065.7692871094,4061.2819824219,4067.4357910156,4057.8205566406,4049.6154785156,4090.0,4080.5129394531,4065.5129394531,4094.4870605469,4053.8461914063,4042.1794433594,4095.1281738281,4074.4870605469,33025,0,0
2081,16.2578125,65,4080.5129394531,4074.7436523438,4072.4357910156,4075.5129394531,4065.3845214844,4050.0,4088.0769042969,4079.6154785156,4061.6667480469,4093.0769042969,4054.2307128906,4050.1281738281,4084.7436523438,4081.2819824219,33025,0,0
2082,16.265625,65,4083.9743652344,4078.3332519531,4080.7692871094,4078.8461914063,4078.9743652344,4050.5129394531,4089.2307128906,4066.1538085938,4054.6154785156,4080.8974609375,4040.7692871094,4040.5129394531,4069.8718261719,4077.6923828125,33025,0,0
2083,16.2734375,65,4080.5129394531,4073.9743652344,4068.205078125,4077.9487304688,4077.6923828125,4051.6667480469,4095.7692871094,4064.3588867188,4051.5385742188,4072.5642089844,4032.8205566406,4026.5385742188,4067.6923828125,4063.7180175781,33025,0,0
2084,16.28125,65,4078.7180175781,4073.4614257813,4062.4357910156,4080.6411132813,4074.2307128906,4059.6154785156,4106.6665039063,4075.1281738281,4057.0512695313,4077.0512695313,4039.7436523438,4017.0512695313,4067.1794433594,4056.794921875,33025,0,0
2085,16.2890625,65,4076.6667480469,4077.8205566406,4066.41015625,4083.205078125,4080.3845214844,4063.9743652344,4111.6665039063,4076.1538085938,4063.58984375,4079.6154785156,4036.6667480469,4019.4870605469,4062.9487304688,4059.1025390625,33025,0,0
2086,16.296875,65,4076.2819824219,4076.41015625,4066.41015625,4079.2307128906,4071.41015625,4051.9230957031,4100.384765625,4063.4614257813,4057.0512695313,4076.0256347656,4029.8718261719,4027.9487304688,4066.6667480469,4061.5385742188,33025,0,0
2087,16.3046875,65,4082.5642089844,4072.8205566406,4070.1281738281,4077.0512695313,4058.58984375,4042.0512695313,4089.3588867188,4063.3332519531,4057.4357910156,4083.205078125,4048.9743652344,4040.3845214844,4082.6923828125,4072.0512695313,33025,0,0
2088,16.3125,65,4085.5129394531,4071.6667480469,4073.58984375,4078.0769042969,4065.5129394531,4045.3845214844,4090.8974609375,4077.0512695313,4073.4614257813,4095.6411132813,4069.2307128906,4058.3332519531,4093.7180175781,4088.7180175781,33025,0,0
2089,16.3203125,65,4081.2819824219,4073.9743652344,4073.9743652344,4076.6667480469,4068.8461914063,4049.7436523438,4093.8461914063,4080.6411132813,4075.7692871094,4096.41015625,4064.2307128906,4062.6923828125,4087.1794433594,4089.3588867188,33025,0,0
2090,16.328125,65,4078.3332519531,4077.5642089844,4074.4870605469,4076.2819824219,4064.2307128906,4054.2307128906,4094.4870605469,4072.9487304688,4063.9743652344,4091.5385742188,4055.5129394531,4046.1538085938,4077.4357910156,4078.7180175781,33025,0,0
2091,16.3359375,65,4078.3332519531,4071.41015625,4066.0256347656,4073.58984375,4071.5385742188,4058.205078125,4096.794921875,4065.5129394531,4059.6154785156,4091.2819824219,4052.6923828125,4032.0512695313,4074.4870605469,4068.8461914063,33025,0,0
2092,16.34375,65,4074.2307128906,4059.3588867188,4057.1794433594,4064.6154785156,4076.9230957031,4052.9487304688,4095.8974609375,4061.5385742188,4061.9230957031,4091.6667480469,4053.0769042969,4025.6411132813,4075.2563476563,4062.6923828125,33025,0,0
2093,16.3515625,65,4069.8718261719,4055.3845214844,4059.7436523438,4060.0,4065.8974609375,4045.1281738281,4093.58984375,4060.1281738281,4060.2563476563,4089.2307128906,4060.7692871094,4028.3332519531,4078.58984375,4069.1025390625,33025,0,0
2094,16.359375,65,4073.205078125,4058.58984375,4064.4870605469,4059.2307128906,4060.5129394531,4047.1794433594,4100.0,4065.6411132813,4059.2307128906,4084.7436523438,4058.3332519531,4046.5385742188,4075.5129394531,4079.4870605469,33025,0,0
2095,16.3671875,65,4076.9230957031,4066.1538085938,4070.5129394531,4061.5385742188,4063.3332519531,4050.7692871094,4106.5385742188,4074.6154785156,4061.1538085938,4081.2819824219,4046.794921875,4062.3076171875,4068.4614257813,4080.7692871094,33025,0,0
2096,16.375,65,4078.7180175781,4073.8461914063,4077.3076171875,4071.5385742188,4065.0,4049.4870605469,4106.5385742188,4079.3588867188,4062.4357910156,4082.1794433594,4049.4870605469,4061.1538085938,4071.2819824219,4080.8974609375,33025,0,0
2097,16.3828125,65,4078.0769042969,4071.41015625,4072.1794433594,4076.0256347656,4068.9743652344,4051.41015625,4108.58984375,4075.8974609375,4064.2307128906,4083.0769042969,4054.2307128906,4059.8718261719,4075.3845214844,4084.4870605469,33025,0,0
2098,16.390625,65,4073.9743652344,4063.58984375,4063.0769042969,4066.6667480469,4064.3588867188,4052.9487304688,4109.2309570313,4058.9743652344,4054.7436523438,4078.7180175781,4049.6154785156,4059.1025390625,4068.7180175781,4079.6154785156,33025,0,0
2099,16.3984375,65,4067.8205566406,4059.6154785156,4063.58984375,4060.2563476563,4058.3332519531,4048.0769042969,4100.8974609375,4042.4357910156,4041.794921875,4073.205078125,4050.5129394531,4046.9230957031,4062.1794433594,4069.1025390625,33025,0,0
2100,16.40625,65,4062.5642089844,4053.8461914063,4062.9487304688,4058.58984375,4062.6923828125,4042.3076171875,4093.205078125,4043.8461914063,4046.794921875,4077.1794433594,4056.41015625,4036.1538085938,4063.9743652344,4061.6667480469,33025,0,0
2101,16.4140625,65,4060.5129394531,4051.41015625,4052.6923828125,4052.4357910156,4064.2307128906,4045.3845214844,4092.3076171875,4052.9487304688,4056.2819824219,4087.8205566406,4050.8974609375,4035.5129394531,4065.5129394531,4062.5642089844,33025,0,0
2102,16.421875,65,4062.4357910156,4058.0769042969,4048.9743652344,4052.6923828125,4064.1025390625,4048.58984375,4094.2307128906,4057.5642089844,4056.0256347656,4089.6154785156,4039.7436523438,4036.0256347656,4062.3076171875,4070.1281738281,33025,0,0
2103,16.4296875,65,4066.5385742188,4060.8974609375,4053.8461914063,4057.9487304688,4065.7692871094,4043.58984375,4097.6923828125,4057.9487304688,4056.41015625,4081.5385742188,4029.8718261719,4033.3332519531,4056.794921875,4068.3332519531,33025,0,0
2104,16.4375,65,4067.3076171875,4057.5642089844,4056.1538085938,4055.5129394531,4065.1281738281,4046.2819824219,4110.2563476563,4057.6923828125,4058.8461914063,4075.0,4025.8974609375,4032.5642089844,4054.7436523438,4064.4870605469,33025,0,0
2105,16.4453125,65,4065.7692871094,4058.0769042969,4056.1538085938,4050.7692871094,4066.1538085938,4060.7692871094,4133.3334960938,4065.7692871094,4060.6411132813,4079.4870605469,4036.41015625,4040.0,4058.9743652344,4073.4614257813,33025,0,0
2106,16.453125,65,4070.5129394531,4058.58984375,4060.1281738281,4052.6923828125,4072.4357910156,4068.7180175781,4143.58984375,4076.41015625,4065.7692871094,4087.9487304688,4051.2819824219,4046.9230957031,4067.5642089844,4080.8974609375,33025,0,0
2107,16.4609375,65,4075.6411132813,4058.4614257813,4063.3332519531,4056.6667480469,4068.0769042969,4061.2819824219,4130.2563476563,4076.0256347656,4067.6923828125,4089.7436523438,4062.1794433594,4045.7692871094,4077.9487304688,4077.1794433594,33025,0,0
2108,16.46875,65,4074.7436523438,4064.4870605469,4062.6923828125,4059.7436523438,4060.2563476563,4051.1538085938,4118.8461914063,4075.3845214844,4067.5642089844,4092.0512695313,4073.0769042969,4044.1025390625,4081.9230957031,4078.4614257813,33025,0,0
2109,16.4765625,65,4072.8205566406,4070.0,4063.9743652344,4065.3845214844,4070.8974609375,4050.2563476563,4123.4614257813,4073.3332519531,4069.6154785156,4092.4357910156,4074.8718261719,4045.2563476563,4076.6667480469,4082.5642089844,33025,0,0
2110,16.484375,65,4071.794921875,4065.7692871094,4066.6667480469,4067.0512695313,4080.6411132813,4052.1794433594,4125.7690429688,4059.6154785156,4056.794921875,4080.0,4062.9487304688,4044.8718261719,4068.58984375,4079.4870605469,33025,0,0
2111,16.4921875,65,4070.7692871094,4059.2307128906,4066.0256347656,4063.8461914063,4073.8461914063,4053.9743652344,4120.0,4052.1794433594,4040.2563476563,4067.4357910156,4056.2819824219,4039.6154785156,4061.9230957031,4073.58984375,33025,0,0
2112,16.5,66,4067.9487304688,4062.5642089844,4062.6923828125,4064.1025390625,4071.6667480469,4055.1281738281,4118.7177734375,4058.8461914063,4046.5385742188,4071.2819824219,4057.6923828125,4030.8974609375,4059.4870605469,4068.7180175781,33025,0,0
2113,16.5078125,66,4065.5129394531,4066.2819824219,4060.2563476563,4065.6411132813,4072.8205566406,4054.6154785156,4122.3076171875,4066.2819824219,4061.1538085938,4081.794921875,4056.41015625,4023.0769042969,4063.4614257813,4072.4357910156,33025,0,0
2114,16.515625,66,4069.2307128906,4062.4357910156,4060.0,4062.1794433594,4064.2307128906,4051.9230957031,4122.8203125,4068.58984375,4063.4614257813,4082.8205566406,4050.1281738281,4019.1025390625,4064.6154785156,4076.6667480469,33025,0,0
2115,16.5234375,66,4071.6667480469,4061.5385742188,4059.8718261719,4060.2563476563,4053.0769042969,4049.1025390625,4116.9228515625,4062.3076171875,4057.9487304688,4077.8205566406,4041.9230957031,4020.3845214844,4061.794921875,4070.2563476563,33025,0,0
2116,16.53125,66,4066.0256347656,4059.2307128906,4052.9487304688,4057.8205566406,4046.41015625,4045.3845214844,4112.6923828125,4053.7180175781,4055.3845214844,4077.3076171875,4039.3588867188,4019.1025390625,4059.1025390625,4061.0256347656,33025,0,0
2117,16.5390625,66,4057.6923828125,4043.3332519531,4038.9743652344,4042.5642089844,4043.205078125,4040.8974609375,4112.8203125,4050.8974609375,4054.8718261719,4078.3332519531,4039.4870605469,4010.3845214844,4055.7692871094,4054.4870605469,33025,0,0
2118,16.546875,66,4052.5642089844,4023.205078125,4031.794921875,4024.8718261719,4048.7180175781,4043.7180175781,4111.5385742188,4048.9743652344,4050.5129394531,4068.58984375,4030.2563476563,3999.6154785156,4052.1794433594,4048.9743652344,33025,0,0
2119,16.5546875,66,4052.5642089844,4018.58984375,4035.5129394531,4020.3845214844,4049.7436523438,4046.41015625,4108.7177734375,4045.0,4043.205078125,4058.205078125,4021.41015625,3995.1281738281,4047.1794433594,4046.1538085938,33025,0,0
2120,16.5625,66,4055.2563476563,4025.8974609375,4036.794921875,4023.58984375,4039.1025390625,4040.0,4099.7436523438,4041.0256347656,4035.6411132813,4061.1538085938,4018.58984375,3995.7692871094,4041.41015625,4047.3076171875,33025,0,0
2121,16.5703125,66,4053.7180175781,4030.2563476563,4030.6411132813,4022.9487304688,4033.205078125,4028.7180175781,4084.2307128906,4027.9487304688,4022.6923828125,4057.9487304688,4010.2563476563,3995.2563476563,4032.4357910156,4039.1025390625,33025,0,0
2122,16.578125,66,4049.7436523438,4026.1538085938,4026.0256347656,4020.5129394531,4028.205078125,4019.1025390625,4075.6411132813,4008.9743652344,4008.0769042969,4042.3076171875,3998.8461914063,3987.4357910156,4021.5385742188,4023.4614257813,33025,0,0
2123,16.5859375,66,4047.3076171875,4024.2307128906,4030.0,4025.5129394531,4017.0512695313,4012.1794433594,4072.3076171875,4002.3076171875,4003.8461914063,4038.8461914063,3993.7180175781,3977.6923828125,4019.2307128906,4018.9743652344,33025,0,0
2124,16.59375,66,4043.205078125,4029.6154785156,4037.3076171875,4030.3845214844,4015.7692871094,4010.7692871094,4066.1538085938,4002.9487304688,4004.7436523438,4043.58984375,3990.8974609375,3970.8974609375,4019.7436523438,4020.1281738281,33025,0,0
2125,16.6015625,66,4038.58984375,4023.8461914063,4030.5129394531,4019.7436523438,4021.5385742188,4016.2819824219,4067.8205566406,3999.7436523438,4002.9487304688,4037.5642089844,3988.58984375,3967.6923828125,4010.5129394531,4010.3845214844,33025,0,0
2126,16.609375,66,4033.205078125,4006.5385742188,4015.3845214844,4004.3588867188,4020.8974609375,4021.9230957031,4076.41015625,3998.3332519531,4003.58984375,4034.7436523438,3988.3332519531,3975.5129394531,4005.5129394531,4001.9230957031,33025,0,0
2127,16.6171875,66,4032.5642089844,4000.3845214844,4015.8974609375,4001.41015625,4016.9230957031,4019.7436523438,4076.41015625,4005.2563476563,4009.3588867188,4042.3076171875,3990.2563476563,3987.1794433594,4015.3845214844,4009.3588867188,33025,0,0
2128,16.625,66,4037.9487304688,4005.7692871094,4023.4614257813,4002.9487304688,4009.7436523438,4010.2563476563,4069.7436523438,4009.8718261719,4011.2819824219,4043.0769042969,3997.5642089844,3988.58984375,4020.0,4017.1794433594,33025,0,0
2129,16.6328125,66,4039.7436523438,4003.3332519531,4015.1281738281,3993.8461914063,3998.205078125,4003.3332519531,4064.2307128906,4003.0769042969,3998.9743652344,4035.1281738281,3998.7180175781,3989.3588867188,4013.9743652344,4010.3845214844,33025,0,0
2130,16.640625,66,4036.5385742188,3999.2307128906,4002.5642089844,3986.6667480469,3996.5385742188,4003.9743652344,4064.7436523438,4000.0,3992.1794433594,4033.58984375,3990.8974609375,3993.58984375,4010.0,4003.8461914063,33025,0,0
2131,16.6484375,66,4038.58984375,4003.0769042969,4005.3845214844,3996.41015625,3996.9230957031,4003.8461914063,4069.6154785156,4004.7436523438,4003.7180175781,4040.0,3991.794921875,3991.0256347656,4015.3845214844,4008.205078125,33025,0,0
2132,16.65625,66,4043.4614257813,4003.8461914063,4019.7436523438,4006.1538085938,3995.3845214844,4005.0,4072.0512695313,4005.5129394531,4008.7180175781,4043.205078125,4001.6667480469,3989.6154785156,4025.6411132813,4014.6154785156,33025,0,0
2133,16.6640625,66,4041.2819824219,4004.4870605469,4028.4614257813,4004.2307128906,4006.41015625,4015.2563476563,4074.3588867188,4006.5385742188,4004.1025390625,4042.0512695313,4011.2819824219,4000.8974609375,4032.3076171875,4021.2819824219,33025,0,0
2134,16.671875,66,4042.9487304688,4007.4357910156,4028.7180175781,3999.8718261719,4017.8205566406,4022.3076171875,4080.1281738281,4016.9230957031,4011.2819824219,4043.3332519531,4018.205078125,4011.2819824219,4030.6411132813,4033.4614257813,33025,0,0
2135,16.6796875,66,4048.205078125,4007.9487304688,4031.9230957031,4000.0,4011.6667480469,4022.3076171875,4083.7180175781,4024.7436523438,4019.8718261719,4046.41015625,4018.7180175781,4011.6667480469,4027.0512695313,4040.7692871094,33025,0,0
2136,16.6875,66,4044.8718261719,4008.0769042969,4035.7692871094,3996.6667480469,4005.3845214844,4020.2563476563,4082.3076171875,4015.7692871094,4010.1281738281,4037.3076171875,4008.4614257813,3998.3332519531,4021.1538085938,4031.6667480469,33025,0,0
2137,16.6953125,66,4039.3588867188,4008.7180175781,4026.5385742188,3990.8974609375,4007.5642089844,4012.8205566406,4078.205078125,3998.3332519531,3995.2563476563,4022.1794433594,3994.2307128906,3977.9487304688,4010.2563476563,4014.4870605469,33025,0,0
2138,16.703125,66,4037.6923828125,4007.9487304688,4012.8205566406,3992.8205566406,4006.6667480469,4003.9743652344,4071.5385742188,3986.6667480469,3987.3076171875,4017.3076171875,3987.8205566406,3974.1025390625,4002.8205566406,4001.1538085938,33025,0,0
2139,16.7109375,66,4036.794921875,4006.0256347656,4013.3332519531,3999.1025390625,4000.0,3997.4357910156,4061.5385742188,3986.794921875,3982.6923828125,4017.9487304688,3988.8461914063,3986.5385742188,4003.0769042969,4000.8974609375,33025,0,0
2140,16.71875,66,4034.7436523438,3998.8461914063,4015.8974609375,3998.7180175781,3990.2563476563,3990.7692871094,4057.3076171875,3989.1025390625,3978.7180175781,4018.205078125,3991.1538085938,3984.3588867188,4005.6411132813,4005.7692871094,33025,0,0
2141,16.7265625,66,4033.0769042969,3993.4614257813,4007.6923828125,3992.8205566406,3993.0769042969,3990.7692871094,4061.2819824219,3988.205078125,3983.8461914063,4021.0256347656,3990.6411132813,3973.58984375,4006.5385742188,4004.8718261719,33025,0,0
2142,16.734375,66,4030.1281738281,3990.6411132813,4005.0,3987.0512695313,3995.8974609375,3991.794921875,4058.3332519531,3988.7180175781,3991.5385742188,4024.4870605469,3991.41015625,3974.8718261719,4006.41015625,4002.0512695313,33025,0,0
2143,16.7421875,66,4025.1281738281,3981.5385742188,4007.8205566406,3978.3332519531,3986.1538085938,3984.8718261719,4048.3332519531,3987.1794433594,3986.9230957031,4025.7692871094,3991.0256347656,3976.794921875,4002.3076171875,3999.3588867188,33025,0,0
2144,16.75,67,4021.5385742188,3969.8718261719,3999.3588867188,3967.1794433594,3982.4357910156,3983.7180175781,4045.2563476563,3978.0769042969,3974.2307128906,4021.0256347656,3981.9230957031,3974.8718261719,3994.6154785156,3993.58984375,33025,0,0
2145,16.7578125,67,4019.1025390625,3962.9487304688,3988.8461914063,3955.1281738281,3983.58984375,3985.7692871094,4041.9230957031,3965.5129394531,3963.58984375,4008.8461914063,3972.6923828125,3973.7180175781,3991.41015625,3988.7180175781,33025,0,0
2146,16.765625,67,4013.9743652344,3953.205078125,3987.4357910156,3943.9743652344,3961.41015625,3971.6667480469,4032.6923828125,3958.8461914063,3958.3332519531,4004.6154785156,3967.3076171875,3966.5385742188,3993.58984375,3988.0769042969,33025,0,0
2147,16.7734375,67,4010.8974609375,3944.3588867188,3987.4357910156,3941.1538085938,3935.8974609375,3956.6667480469,4026.6667480469,3957.4357910156,3960.2563476563,4007.8205566406,3963.7180175781,3951.1538085938,3988.58984375,3984.3588867188,33025,0,0
2148,16.78125,67,4009.4870605469,3942.3076171875,3983.58984375,3942.1794433594,3945.1281738281,3958.4614257813,4023.205078125,3958.8461914063,3959.6154785156,3997.5642089844,3959.4870605469,3941.41015625,3975.7692871094,3978.3332519531,33025,0,0
2149,16.7890625,67,4006.5385742188,3939.8718261719,3978.58984375,3941.9230957031,3965.0,3959.2307128906,4016.6667480469,3958.4614257813,3947.4357910156,3988.3332519531,3949.4870605469,3942.3076171875,3967.0512695313,3973.4614257813,33025,0,0
2150,16.796875,67,4003.4614257813,3939.7436523438,3974.8718261719,3938.7180175781,3958.0769042969,3946.794921875,4005.5129394531,3942.3076171875,3932.5642089844,3986.9230957031,3939.1025390625,3942.3076171875,3962.5642089844,3968.8461914063,33025,0,0
2151,16.8046875,67,4003.205078125,3942.3076171875,3973.205078125,3931.5385742188,3939.4870605469,3938.3332519531,3991.6667480469,3928.3332519531,3924.7436523438,3979.7436523438,3937.8205566406,3937.8205566406,3959.2307128906,3967.5642089844,33025,0,0
3547,27.7109375,110,4115.8974609375,4123.58984375,4121.0258789063,4128.7177734375,4122.3076171875,4124.8715820313,4124.7436523438,4118.3334960938,4124.3588867188,4125.1284179688,4120.2563476563,4116.1538085938,4127.6923828125,4155.5126953125,33026,27.7160933146,0.0000000000
3548,27.71875,110,4114.2309570313,4120.6411132813,4116.9228515625,4127.3076171875,4117.8203125,4122.4360351563,4122.0512695313,4111.0258789063,4120.2563476563,4121.794921875,4120.5126953125,4105.8974609375,4127.5639648438,4151.5385742188,33026,0,0
3549,27.7265625,110,4117.1796875,4124.2309570313,4120.1284179688,4132.1796875,4114.1025390625,4120.8974609375,4115.2563476563,4114.4873046875,4122.6923828125,4122.8203125,4122.5639648438,4107.8203125,4127.0512695313,4151.1538085938,33026,0,0
3550,27.734375,110,4122.8203125,4129.8715820313,4125.1284179688,4139.1025390625,4121.794921875,4120.7690429688,4116.6665039063,4123.0771484375,4126.41015625,4126.41015625,4126.794921875,4118.9741210938,4128.4614257813,4155.2563476563,33026,0,0
3551,27.7421875,110,4118.7177734375,4125.8974609375,4123.205078125,4136.794921875,4126.9228515625,4123.0771484375,4123.3334960938,4124.3588867188,4126.1538085938,4126.9228515625,4128.0771484375,4125.0,4137.0512695313,4157.5639648438,33026,0,0
3552,27.75,111,4113.9741210938,4121.5385742188,4115.7690429688,4129.1025390625,4122.3076171875,4123.0771484375,4121.794921875,4117.1796875,4124.8715820313,4122.9487304688,4124.8715820313,4127.5639648438,4139.3588867188,4154.1025390625,33026,0,0
3553,27.7578125,111,4112.4360351563,4120.8974609375,4112.5639648438,4125.6411132813,4118.7177734375,4114.615234375,4112.3076171875,4110.384765625,4123.4614257813,4122.0512695313,4123.9741210938,4127.6923828125,4128.4614257813,4143.8461914063,33026,0,0
3554,27.765625,111,4109.7436523438,4116.0258789063,4116.0258789063,4125.8974609375,4113.58984375,4107.9487304688,4107.1796875,4107.6923828125,4121.1538085938,4123.4614257813,4122.3076171875,4124.7436523438,4121.5385742188,4136.6665039063,33026,0,0
3555,27.7734375,111,4104.615234375,4108.0771484375,4112.4360351563,4123.3334960938,4099.3588867188,4106.794921875,4105.1284179688,4104.7436523438,4114.615234375,4115.2563476563,4116.1538085938,4120.8974609375,4124.615234375,4136.9228515625,33026,0,0
3556,27.78125,111,4104.615234375,4110.5126953125,4104.4873046875,4120.1284179688,4099.2309570313,4108.7177734375,4103.8461914063,4102.9487304688,4105.384765625,4107.6923828125,4116.0258789063,4122.5639648438,4122.5639648438,4135.6411132813,33026,0,0
3557,27.7890625,111,4110.2563476563,4121.794921875,4115.2563476563,4125.7690429688,4122.6923828125,4114.4873046875,4109.3588867188,4108.4614257813,4109.615234375,4119.2309570313,4122.4360351563,4132.4360351563,4120.2563476563,4135.2563476563,33026,0,0
3558,27.796875,111,4109.2309570313,4125.5126953125,4127.4360351563,4130.8974609375,4123.205078125,4113.9741210938,4108.4614257813,4111.794921875,4120.8974609375,4128.9741210938,4126.6665039063,4133.7177734375,4126.0258789063,4141.794921875,33026,0,0
3559,27.8046875,111,4104.7436523438,4115.5126953125,4115.384765625,4123.3334960938,4098.4614257813,4105.5126953125,4098.205078125,4106.1538085938,4117.6923828125,4117.8203125,4125.6411132813,4123.8461914063,4124.7436523438,4140.384765625,33026,0,0
3560,27.8125,111,4104.4873046875,4104.3588867188,4100.7690429688,4117.3076171875,4099.3588867188,4104.1025390625,4098.58984375,4102.5639648438,4107.4360351563,4107.9487304688,4118.8461914063,4122.6923828125,4112.8203125,4130.1284179688,33026,0,0
3561,27.8203125,111,4106.41015625,4097.9487304688,4103.0771484375,4117.9487304688,4113.9741210938,4109.615234375,4109.2309570313,4102.1796875,4108.7177734375,4112.4360351563,4112.4360351563,4125.1284179688,4107.5639648438,4131.1538085938,33026,0,0
3562,27.828125,111,4105.0,4094.6154785156,4109.615234375,4114.2309570313,4107.9487304688,4111.0258789063,4109.2309570313,4100.8974609375,4110.0,4112.5639648438,4112.5639648438,4117.8203125,4108.0771484375,4136.41015625,33026,0,0
3563,27.8359375,111,4102.3076171875,4098.58984375,4107.4360351563,4111.6665039063,4098.3334960938,4108.3334960938,4103.7177734375,4100.7690429688,4105.6411132813,4106.794921875,4106.9228515625,4117.8203125,4106.9228515625,4136.1538085938,33026,0,0
3564,27.84375,111,4104.8715820313,4106.0258789063,4104.3588867188,4118.7177734375,4103.7177734375,4106.41015625,4106.0258789063,4103.0771484375,4107.5639648438,4108.7177734375,4100.0,4118.7177734375,4106.9228515625,4134.2309570313,33026,0,0
3565,27.8515625,111,4108.58984375,4109.2309570313,4107.3076171875,4123.3334960938,4111.794921875,4107.4360351563,4110.0,4105.384765625,4112.4360351563,4112.5639648438,4104.615234375,4107.6923828125,4108.0771484375,4128.9741210938,33026,0,0
3566,27.859375,111,4109.1025390625,4107.9487304688,4111.0258789063,4121.794921875,4110.7690429688,4108.3334960938,4108.205078125,4106.6665039063,4112.1796875,4112.4360351563,4105.6411132813,4110.0,4106.5385742188,4124.3588867188,33026,0,0
3567,27.8671875,111,4110.384765625,4106.9228515625,4110.7690429688,4122.9487304688,4107.8203125,4110.1284179688,4108.0771484375,4109.2309570313,4111.2822265625,4111.9228515625,4101.6665039063,4119.615234375,4105.8974609375,4127.8203125,33026,0,0
3568,27.875,111,4109.2309570313,4108.3334960938,4109.3588867188,4122.8203125,4114.2309570313,4117.9487304688,4114.7436523438,4110.7690429688,4110.6411132813,4113.58984375,4103.3334960938,4115.2563476563,4105.2563476563,4128.205078125,33026,0,0
3569,27.8828125,111,4106.6665039063,4108.58984375,4109.7436523438,4121.5385742188,4110.8974609375,4121.794921875,4118.3334960938,4109.3588867188,4113.205078125,4117.0512695313,4106.41015625,4110.384765625,4105.6411132813,4124.2309570313,33026,0,0
3570,27.890625,111,4112.0512695313,4109.615234375,4113.205078125,4123.7177734375,4097.1796875,4115.8974609375,4113.4614257813,4108.9741210938,4121.6665039063,4118.8461914063,4107.5639648438,4114.1025390625,4107.0512695313,4131.41015625,33026,0,0
3571,27.8984375,111,4116.1538085938,4112.5639648438,4117.0512695313,4126.794921875,4103.7177734375,4109.7436523438,4108.0771484375,4108.7177734375,4122.3076171875,4120.8974609375,4112.0512695313,4121.6665039063,4105.7690429688,4139.2309570313,33026,0,0
3572,27.90625,111,4111.6665039063,4112.5639648438,4113.3334960938,4127.4360351563,4120.1284179688,4107.6923828125,4105.1284179688,4102.0512695313,4114.1025390625,4122.8203125,4118.4614257813,4126.794921875,4110.384765625,4138.3334960938,33026,0,0
3573,27.9140625,111,4106.5385742188,4107.8203125,4109.8715820313,4125.8974609375,4121.2822265625,4113.7177734375,4105.1284179688,4098.3334960938,4114.4873046875,4121.794921875,4118.58984375,4118.205078125,4113.3334960938,4135.7690429688,33026,0,0
3574,27.921875,111,4105.2563476563,4111.794921875,4115.2563476563,4127.0512695313,4119.615234375,4120.2563476563,4108.58984375,4105.0,4121.794921875,4121.5385742188,4118.58984375,4119.8715820313,4111.9228515625,4135.5126953125,33026,0,0
3575,27.9296875,111,4109.3588867188,4121.0258789063,4116.9228515625,4129.1025390625,4123.8461914063,4116.41015625,4110.5126953125,4112.1796875,4123.8461914063,4125.1284179688,4120.1284179688,4138.205078125,4117.4360351563,4138.58984375,33026,0,0
3576,27.9375,111,4112.6923828125,4118.0771484375,4110.0,4125.2563476563,4120.1284179688,4111.9228515625,4107.4360351563,4112.1796875,4119.1025390625,4120.6411132813,4116.9228515625,4135.5126953125,4120.384765625,4139.7436523438,33026,0,0
3577,27.9453125,111,4110.5126953125,4107.6923828125,4103.8461914063,4117.1796875,4105.6411132813,4107.0512695313,4102.8203125,4106.1538085938,4109.7436523438,4107.5639648438,4108.58984375,4119.1025390625,4107.4360351563,4131.0258789063,33026,0,0
3578,27.953125,111,4112.4360351563,4105.2563476563,4106.794921875,4115.7690429688,4101.0258789063,4103.8461914063,4103.9741210938,4103.3334960938,4107.0512695313,4108.205078125,4105.7690429688,4115.5126953125,4101.5385742188,4127.3076171875,33026,0,0
3579,27.9609375,111,4116.6665039063,4110.5126953125,4114.1025390625,4124.1025390625,4118.7177734375,4116.2822265625,4112.9487304688,4107.1796875,4116.6665039063,4120.7690429688,4111.9228515625,4115.6411132813,4116.5385742188,4137.0512695313,33026,0,0
3580,27.96875,111,4112.3076171875,4114.4873046875,4114.7436523438,4126.41015625,4124.1025390625,4122.9487304688,4114.3588867188,4104.8715820313,4119.2309570313,4119.615234375,4115.2563476563,4111.41015625,4123.0771484375,4136.6665039063,33026,0,0
3581,27.9765625,111,4107.9487304688,4115.0,4108.9741210938,4122.4360351563,4108.3334960938,4110.1284179688,4107.1796875,4100.8974609375,4110.6411132813,4108.0771484375,4113.9741210938,4109.7436523438,4119.615234375,4126.0258789063,33026,0,0
3582,27.984375,111,4112.6923828125,4113.0771484375,4108.9741210938,4124.3588867188,4106.794921875,4106.9228515625,4105.384765625,4106.2822265625,4110.1284179688,4113.7177734375,4111.0258789063,4110.1284179688,4121.6665039063,4125.8974609375,33026,0,0
3583,27.9921875,111,4110.384765625,4107.8203125,4108.4614257813,4121.2822265625,4112.8203125,4110.8974609375,4106.2822265625,4109.8715820313,4113.0771484375,4121.794921875,4108.0771484375,4103.7177734375,4116.9228515625,4127.8203125,33026,0,0
3584,28.0,112,4103.0771484375,4104.7436523438,4098.58984375,4109.615234375,4107.5639648438,4107.6923828125,4106.1538085938,4107.5639648438,4111.6665039063,4116.41015625,4108.3334960938,4093.4614257813,4107.4360351563,4116.6665039063,33026,0,0
3585,28.0078125,112,4106.5385742188,4104.8715820313,4091.0256347656,4105.1284179688,4101.41015625,4110.384765625,4109.3588867188,4105.1284179688,4113.58984375,4116.9228515625,4104.1025390625,4085.5129394531,4105.5126953125,4104.1025390625,33026,0,0
3586,28.015625,112,4110.0,4106.9228515625,4097.3076171875,4110.0,4109.4873046875,4114.8715820313,4110.5126953125,4103.205078125,4119.3588867188,4118.58984375,4096.794921875,4083.7180175781,4105.5126953125,4107.0512695313,33026,0,0
3587,28.0234375,112,4108.58984375,4111.5385742188,4108.205078125,4113.7177734375,4121.5385742188,4109.7436523438,4106.1538085938,4105.1284179688,4122.6923828125,4114.8715820313,4099.1025390625,4091.1538085938,4110.384765625,4121.0258789063,33026,0,0
3588,28.03125,112,4108.58984375,4113.58984375,4109.4873046875,4113.58984375,4120.2563476563,4108.0771484375,4104.1025390625,4107.6923828125,4120.0,4118.205078125,4108.9741210938,4105.5126953125,4120.7690429688,4127.4360351563,33026,0,0
3589,28.0390625,112,4107.9487304688,4106.9228515625,4101.9228515625,4108.7177734375,4107.4360351563,4107.5639648438,4104.1025390625,4097.5639648438,4109.3588867188,4118.58984375,4109.3588867188,4103.205078125,4114.8715820313,4116.6665039063,33026,0,0
3590,28.046875,112,4106.0258789063,4104.2309570313,4100.6411132813,4103.7177734375,4101.6665039063,4106.41015625,4105.7690429688,4088.7180175781,4104.2309570313,4108.0771484375,4098.3334960938,4082.1794433594,4105.8974609375,4106.1538085938,33026,0,0
3591,28.0546875,112,4104.4873046875,4108.0771484375,4100.2563476563,4104.2309570313,4108.58984375,4115.8974609375,4108.8461914063,4094.4870605469,4109.8715820313,4105.7690429688,4092.6923828125,4073.9743652344,4107.4360351563,4105.6411132813,33026,0,0
3592,28.0625,112,4103.7177734375,4105.0,4092.8205566406,4104.2309570313,4111.794921875,4122.1796875,4106.5385742188,4097.0512695313,4110.6411132813,4109.3588867188,4091.0256347656,4078.58984375,4101.41015625,4105.7690429688,33026,0,0
3593,28.0703125,112,4109.8715820313,4100.5126953125,4090.1281738281,4104.4873046875,4106.794921875,4113.7177734375,4101.9228515625,4089.8718261719,4103.58984375,4105.384765625,4084.6154785156,4073.7180175781,4097.3076171875,4102.9487304688,33026,0,0
3594,28.078125,112,4113.8461914063,4107.0512695313,4097.5639648438,4106.6665039063,4108.58984375,4110.7690429688,4103.9741210938,4091.0256347656,4106.5385742188,4106.9228515625,4083.205078125,4075.3845214844,4105.6411132813,4105.0,33026,0,0
3595,28.0859375,112,4110.8974609375,4117.3076171875,4106.794921875,4110.8974609375,4122.8203125,4118.58984375,4109.1025390625,4104.1025390625,4118.8461914063,4116.2822265625,4096.794921875,4090.6411132813,4111.6665039063,4116.2822265625,33026,0,0
3596,28.09375,112,4114.2309570313,4122.3076171875,4110.2563476563,4118.0771484375,4122.1796875,4115.1284179688,4108.58984375,4111.9228515625,4124.8715820313,4124.3588867188,4111.0258789063,4093.7180175781,4115.0,4124.8715820313,33026,0,0
3597,28.1015625,112,4119.615234375,4123.3334960938,4108.8461914063,4123.58984375,4109.2309570313,4108.4614257813,4107.1796875,4108.3334960938,4121.9228515625,4123.58984375,4111.9228515625,4092.5642089844,4122.8203125,4125.7690429688,33026,0,0
3598,28.109375,112,4119.1025390625,4121.2822265625,4107.6923828125,4121.6665039063,4117.8203125,4118.58984375,4111.794921875,4106.5385742188,4118.7177734375,4113.3334960938,4110.2563476563,4101.6665039063,4125.2563476563,4125.8974609375,33026,0,0
3599,28.1171875,112,4113.0771484375,4116.6665039063,4107.1796875,4113.9741210938,4125.1284179688,4124.7436523438,4116.2822265625,4111.0258789063,4119.615234375,4112.8203125,4109.3588867188,4099.4873046875,4118.58984375,4123.7177734375,33026,0,0
3600,28.125,112,4109.4873046875,4108.0771484375,4100.7690429688,4105.6411132813,4105.8974609375,4112.5639648438,4112.8203125,4109.8715820313,4116.9228515625,4118.4614257813,4099.7436523438,4077.1794433594,4109.8715820313,4112.0512695313,33026,0,0
3601,28.1328125,112,4108.3334960938,4102.6923828125,4090.7692871094,4102.5639648438,4098.205078125,4103.9741210938,4105.7690429688,4104.615234375,4113.4614257813,4119.1025390625,4090.2563476563,4064.7436523438,4105.5126953125,4101.9228515625,33026,0,0
3602,28.140625,112,4106.2822265625,4108.3334960938,4093.58984375,4105.7690429688,4109.7436523438,4107.3076171875,4105.6411132813,4106.1538085938,4114.1025390625,4117.0512695313,4096.9228515625,4078.8461914063,4109.4873046875,4110.0,33026,0,0
3603,28.1484375,112,4110.0,4111.41015625,4105.7690429688,4105.7690429688,4104.615234375,4105.6411132813,4106.2822265625,4105.8974609375,4109.3588867188,4115.2563476563,4106.794921875,4091.2819824219,4115.7690429688,4120.6411132813,33026,0,0
3604,28.15625,112,4114.8715820313,4110.7690429688,4109.7436523438,4109.3588867188,4101.1538085938,4105.0,4106.794921875,4103.58984375,4107.8203125,4117.6923828125,4107.3076171875,4089.4870605469,4121.1538085938,4123.58984375,33026,0,0
3605,28.1640625,112,4116.794921875,4118.205078125,4107.6923828125,4121.2822265625,4119.2309570313,4111.794921875,4113.9741210938,4111.0258789063,4118.9741210938,4123.9741210938,4110.0,4097.8203125,4124.2309570313,4124.615234375,33026,0,0
3606,28.171875,112,4116.2822265625,4123.9741210938,4106.6665039063,4121.41015625,4123.58984375,4111.41015625,4123.7177734375,4122.3076171875,4125.1284179688,4125.2563476563,4110.6411132813,4111.2822265625,4121.6665039063,4125.384765625,33026,0,0
3607,28.1796875,112,4113.4614257813,4115.384765625,4101.6665039063,4108.0771484375,4105.6411132813,4105.6411132813,4122.9487304688,4130.0,4122.3076171875,4120.5126953125,4101.2822265625,4101.5385742188,4114.2309570313,4124.2309570313,33026,0,0
3608,28.1875,112,4114.1025390625,4106.1538085938,4104.4873046875,4106.0258789063,4103.7177734375,4107.5639648438,4115.2563476563,4138.205078125,4130.5126953125,4120.8974609375,4101.0258789063,4094.8718261719,4109.615234375,4125.7690429688,33026,0,0
3609,28.1953125,112,4115.0,4110.2563476563,4109.4873046875,4113.4614257813,4112.1796875,4110.7690429688,4111.9228515625,4140.6411132813,4138.8461914063,4125.2563476563,4112.1796875,4106.41015625,4112.3076171875,4128.58984375,33026,0,0
3610,28.203125,112,4113.4614257813,4114.4873046875,4100.1284179688,4112.1796875,4107.8203125,4106.794921875,4108.58984375,4125.6411132813,4125.384765625,4121.41015625,4108.9741210938,4103.58984375,4114.1025390625,4123.4614257813,33026,0,0
3611,28.2109375,112,4113.7177734375,4111.41015625,4096.2822265625,4111.0258789063,4111.1538085938,4106.9228515625,4104.8715820313,4107.1796875,4110.8974609375,4112.8203125,4097.8203125,4099.615234375,4112.0512695313,4120.8974609375,33026,0,0
3612,28.21875,112,4114.1025390625,4106.2822265625,4105.6411132813,4114.1025390625,4119.7436523438,4110.8974609375,4105.2563476563,4104.1025390625,4109.3588867188,4107.1796875,4094.3588867188,4108.4614257813,4108.9741210938,4122.0512695313,33026,0,0
3613,28.2265625,112,4111.5385742188,4106.5385742188,4104.8715820313,4111.1538085938,4113.7177734375,4109.4873046875,4106.0258789063,4107.6923828125,4107.6923828125,4105.6411132813,4094.6154785156,4105.0,4105.0,4116.9228515625,33026,0,0
3614,28.234375,112,4107.4360351563,4110.6411132813,4092.1794433594,4107.0512695313,4105.6411132813,4106.0258789063,4103.58984375,4109.7436523438,4110.5126953125,4109.4873046875,4099.2309570313,4105.384765625,4107.5639648438,4114.8715820313,33026,0,0
3615,28.2421875,112,4107.9487304688,4110.5126953125,4088.205078125,4108.8461914063,4105.1284179688,4106.5385742188,4105.384765625,4112.9487304688,4121.794921875,4120.5126953125,4105.8974609375,4128.4614257813,4114.1025390625,4120.7690429688,33026,0,0
3616,28.25,113,4110.1284179688,4106.2822265625,4096.6665039063,4109.615234375,4104.4873046875,4108.3334960938,4112.3076171875,4112.0512695313,4121.0258789063,4120.7690429688,4106.794921875,4136.9228515625,4111.1538085938,4124.8715820313,33026,0,0
3617,28.2578125,113,4109.615234375,4104.1025390625,4101.2822265625,4105.384765625,4105.7690429688,4107.9487304688,4112.1796875,4103.205078125,4109.615234375,4107.8203125,4103.8461914063,4126.0258789063,4106.41015625,4124.7436523438,33026,0,0
3618,28.265625,113,4107.1796875,4105.6411132813,4095.5129394531,4105.5126953125,4107.8203125,4107.0512695313,4108.3334960938,4100.7690429688,4106.6665039063,4104.615234375,4099.615234375,4120.7690429688,4108.3334960938,4122.8203125,33026,0,0
3619,28.2734375,113,4105.5126953125,4106.5385742188,4091.794921875,4110.384765625,4105.7690429688,4106.41015625,4107.8203125,4107.1796875,4109.2309570313,4109.8715820313,4093.58984375,4119.1025390625,4109.7436523438,4120.8974609375,33026,0,0
3620,28.28125,113,4108.7177734375,4107.5639648438,4097.3076171875,4111.9228515625,4106.41015625,4105.384765625,4111.41015625,4108.8461914063,4107.4360351563,4107.5639648438,4090.7692871094,4118.0771484375,4106.794921875,4127.5639648438,33026,0,0
3621,28.2890625,113,4112.5639648438,4107.6923828125,4100.7690429688,4109.1025390625,4107.1796875,4111.0258789063,4116.5385742188,4106.5385742188,4103.9741210938,4104.615234375,4096.1538085938,4119.615234375,4104.4873046875,4136.0258789063,33026,0,0
3622,28.296875,113,4114.8715820313,4106.0258789063,4099.7436523438,4110.384765625,4108.9741210938,4118.3334960938,4123.205078125,4107.1796875,4105.384765625,4107.3076171875,4105.1284179688,4123.205078125,4107.9487304688,4137.6923828125,33026,0,0
3623,28.3046875,113,4113.4614257813,4107.0512695313,4099.3588867188,4111.9228515625,4109.2309570313,4116.9228515625,4121.6665039063,4109.2309570313,4109.3588867188,4109.2309570313,4105.5126953125,4119.1025390625,4109.2309570313,4134.615234375,33026,0,0
3624,28.3125,113,4106.41015625,4107.9487304688,4095.0,4108.8461914063,4106.41015625,4109.8715820313,4109.615234375,4105.384765625,4106.0258789063,4105.0,4092.9487304688,4100.7690429688,4101.5385742188,4123.58984375,33026,0,0
3625,28.3203125,113,4105.6411132813,4106.794921875,4090.1281738281,4109.1025390625,4111.5385742188,4111.6665039063,4108.3334960938,4104.1025390625,4105.384765625,4103.9741210938,4088.7180175781,4086.2819824219,4098.7177734375,4119.8715820313,33026,0,0
3626,28.328125,113,4113.4614257813,4107.1796875,4098.58984375,4111.41015625,4120.1284179688,4120.384765625,4118.58984375,4114.4873046875,4120.1284179688,4116.0258789063,4102.6923828125,4096.6665039063,4107.8203125,4135.0,33026,0,0
3627,28.3359375,113,4113.205078125,4109.7436523438,4106.0258789063,4110.1284179688,4116.5385742188,4121.2822265625,4124.2309570313,4127.3076171875,4130.1284179688,4122.5639648438,4109.2309570313,4111.9228515625,4112.8203125,4148.0771484375,33026,0,0
3628,28.34375,113,4110.0,4104.8715820313,4096.9228515625,4105.5126953125,4104.7436523438,4113.205078125,4121.0258789063,4125.384765625,4120.6411132813,4111.5385742188,4098.7177734375,4102.4360351563,4109.1025390625,4141.9228515625,33026,0,0
3629,28.3515625,113,4111.0258789063,4094.6154785156,4088.7180175781,4101.1538085938,4102.9487304688,4105.5126953125,4117.9487304688,4113.58984375,4107.3076171875,4102.5639648438,4089.8718261719,4081.9230957031,4103.4614257813,4128.3334960938,33026,0,0
3630,28.359375,113,4110.6411132813,4096.6665039063,4090.5129394531,4101.1538085938,4104.2309570313,4107.0512695313,4122.1796875,4114.4873046875,4106.41015625,4107.8203125,4091.2819824219,4079.6154785156,4101.2822265625,4126.6665039063,33026,0,0
3631,28.3671875,113,4109.7436523438,4106.5385742188,4092.8205566406,4106.9228515625,4105.7690429688,4110.8974609375,4121.1538085938,4122.0512695313,4116.2822265625,4113.7177734375,4094.1025390625,4087.5642089844,4104.615234375,4136.1538085938,33026,0,0
3632,28.375,113,4109.7436523438,4107.6923828125,4094.3588867188,4110.5126953125,4111.5385742188,4108.9741210938,4111.41015625,4118.8461914063,4118.8461914063,4110.384765625,4095.8974609375,4082.6923828125,4107.6923828125,4139.7436523438,33026,0,0
3633,28.3828125,113,4109.2309570313,4105.0,4096.5385742188,4106.5385742188,4110.1284179688,4106.6665039063,4105.384765625,4112.4360351563,4111.0258789063,4107.0512695313,4101.9228515625,4074.4870605469,4105.5126953125,4134.8715820313,33026,0,0
3634,28.390625,113,4107.8203125,4107.3076171875,4091.794921875,4104.8715820313,4106.6665039063,4109.1025390625,4110.8974609375,4110.2563476563,4109.7436523438,4107.6923828125,4105.2563476563,4076.41015625,4104.7436523438,4134.4873046875,33026,0,0
3635,28.3984375,113,4109.3588867188,4108.8461914063,4090.7692871094,4107.9487304688,4102.4360351563,4109.4873046875,4118.7177734375,4108.0771484375,4112.0512695313,4108.7177734375,4100.2563476563,4077.8205566406,4107.6923828125,4136.794921875,33026,0,0
3636,28.40625,113,4110.1284179688,4107.6923828125,4097.1796875,4108.58984375,4093.8461914063,4105.384765625,4119.8715820313,4107.1796875,4106.6665039063,4106.6665039063,4093.8461914063,4078.9743652344,4108.58984375,4136.2822265625,33026,0,0
3637,28.4140625,113,4107.4360351563,4111.6665039063,4098.8461914063,4106.41015625,4102.1796875,4107.1796875,4115.5126953125,4112.0512695313,4104.3588867188,4105.384765625,4093.58984375,4084.4870605469,4106.6665039063,4139.3588867188,33026,0,0
3638,28.421875,113,4108.7177734375,4110.5126953125,4098.9741210938,4106.9228515625,4122.1796875,4110.6411132813,4107.9487304688,4110.384765625,4104.8715820313,4106.9228515625,4096.1538085938,4078.9743652344,4106.794921875,4142.0512695313,33026,0,0
3639,28.4296875,113,4108.8461914063,4099.615234375,4096.6665039063,4106.6665039063,4117.5639648438,4109.615234375,4106.2822265625,4104.8715820313,4099.4873046875,4106.794921875,4091.2819824219,4072.0512695313,4106.794921875,4134.615234375,33026,0,0
3640,28.4375,113,4105.0,4096.41015625,4091.794921875,4101.5385742188,4103.3334960938,4109.1025390625,4111.6665039063,4105.2563476563,4101.794921875,4105.384765625,4085.1281738281,4073.7180175781,4103.8461914063,4125.384765625,33026,0,0
3641,28.4453125,113,4102.3076171875,4099.4873046875,4092.5642089844,4096.9228515625,4107.3076171875,4109.8715820313,4112.6923828125,4106.794921875,4109.7436523438,4102.1796875,4081.9230957031,4068.9743652344,4098.205078125,4122.1796875,33026,0,0
3642,28.453125,113,4102.5639648438,4097.3076171875,4087.8205566406,4093.3332519531,4098.58984375,4106.2822265625,4109.1025390625,4105.2563476563,4105.0,4102.3076171875,4075.8974609375,4065.2563476563,4092.8205566406,4126.1538085938,33026,0,0
3643,28.4609375,113,4107.3076171875,4098.0771484375,4080.3845214844,4095.3845214844,4086.41015625,4104.7436523438,4107.8203125,4101.0258789063,4095.6411132813,4106.2822265625,4075.2563476563,4073.9743652344,4097.6923828125,4133.8461914063,33026,0,0
3644,28.46875,113,4108.4614257813,4106.5385742188,4087.9487304688,4101.9228515625,4096.794921875,4106.794921875,4109.2309570313,4095.2563476563,4090.3845214844,4103.0771484375,4085.8974609375,4077.3076171875,4104.2309570313,4138.58984375,33026,0,0
3645,28.4765625,113,4102.8203125,4108.58984375,4096.2822265625,4100.2563476563,4101.0258789063,4102.9487304688,4105.6411132813,4090.0,4088.0769042969,4096.9228515625,4091.794921875,4071.794921875,4100.1284179688,4137.3076171875,33026,0,0
3646,28.484375,113,4103.205078125,4106.0258789063,4091.0256347656,4095.8974609375,4096.0258789063,4100.2563476563,4102.5639648438,4093.0769042969,4098.205078125,4101.1538085938,4089.6154785156,4078.205078125,4103.0771484375,4138.205078125,33026,0,0
3647,28.4921875,113,4108.0771484375,4105.8974609375,4089.1025390625,4096.9228515625,4105.5126953125,4106.6665039063,4106.5385742188,4103.4614257813,4109.3588867188,4108.9741210938,4087.8205566406,4085.0,4110.8974609375,4141.2822265625,33026,0,0
3648,28.5,114,4106.9228515625,4105.1284179688,4092.8205566406,4095.3845214844,4111.2822265625,4109.3588867188,4110.2563476563,4107.4360351563,4101.0258789063,4106.794921875,4075.6411132813,4079.7436523438,4098.7177734375,4139.4873046875,33026,0,0
3649,28.5078125,114,4104.3588867188,4105.8974609375,4092.0512695313,4093.8461914063,4093.7180175781,4103.3334960938,4108.4614257813,4103.8461914063,4090.3845214844,4098.4614257813,4063.7180175781,4073.205078125,4084.2307128906,4135.5126953125,33026,0,0
3650,28.515625,114,4105.5126953125,4108.9741210938,4089.4870605469,4102.0512695313,4090.5129394531,4103.9741210938,4108.0771484375,4103.8461914063,4092.1794433594,4091.6667480469,4069.1025390625,4074.1025390625,4090.5129394531,4134.1025390625,33026,0,0
3651,28.5234375,114,4108.3334960938,4111.9228515625,4093.0769042969,4108.205078125,4113.0771484375,4111.794921875,4112.4360351563,4108.0771484375,4095.5129394531,4091.9230957031,4077.5642089844,4081.6667480469,4098.7177734375,4139.2309570313,33026,0,0
3652,28.53125,114,4108.8461914063,4110.6411132813,4101.9228515625,4106.6665039063,4113.205078125,4110.8974609375,4109.8715820313,4107.1796875,4099.2309570313,4102.6923828125,4080.8974609375,4087.6923828125,4101.1538085938,4149.7436523438,33026,0,0
3653,28.5390625,114,4111.1538085938,4113.7177734375,4109.2309570313,4109.1025390625,4098.4614257813,4107.0512695313,4103.3334960938,4110.6411132813,4111.9228515625,4118.205078125,4092.1794433594,4099.7436523438,4112.3076171875,4162.4360351563,33026,0,0
